
Integration time [ms]:   3.780
Averaging Nr. [scans]: 1
Smoothing Nr. [pixels]: 0
Data measured with spectrometer [name]: 1911294U1
Wave   ;Sample   ;Dark     ;Reference;Absorbance
[nm]   ;[counts] ;[counts] ;[counts] ;[A.U]

 860.61;  108.250;   67.750;  833.250; 1.27649
 864.82;  127.250;   49.750;  998.250; 1.08774
 869.02;  131.250;   59.750; 1169.250; 1.19082
 873.23;  141.250;   54.750; 1288.250; 1.15412
 877.43;  149.250;   53.750; 1415.250; 1.15401
 881.63;  167.250;   54.750; 1540.250; 1.12072
 885.83;  172.250;   49.750; 1684.250; 1.12525
 890.03;  170.250;   28.750; 1796.250; 1.09660
 894.23;  181.250;   40.750; 1929.250; 1.12844
 898.42;  191.250;   37.750; 2071.250; 1.12214
 902.62;  204.250;   56.750; 2213.250; 1.16496
 906.81;  211.250;   35.750; 2337.250; 1.11773
 911.00;  216.250;   53.750; 2523.250; 1.18176
 915.19;  219.250;   45.750; 2712.250; 1.18664
 919.38;  264.250;   47.750; 2963.250; 1.12926
 923.57;  285.250;   53.750; 3292.250; 1.14579
 927.76;  308.250;   40.750; 3728.250; 1.13941
 931.94;  345.250;   39.750; 4163.250; 1.13025
 936.13;  364.250;   53.750; 4579.250; 1.16360
 940.31;  385.250;   50.750; 4873.250; 1.15888
 944.49;  419.250;   63.750; 5167.250; 1.15703
 948.67;  409.250;   49.750; 5411.250; 1.17359
 952.85;  429.250;   50.750; 5679.250; 1.17233
 957.03;  455.250;   47.750; 5965.250; 1.16201
 961.21;  467.250;   58.750; 6236.250; 1.17962
 965.38;  468.250;   44.750; 6471.250; 1.18112
 969.55;  475.250;   37.750; 6719.250; 1.18390
 973.73;  501.250;   56.750; 6971.250; 1.19189
 977.90;  512.250;   42.750; 7222.250; 1.18446
 982.06;  534.250;   44.750; 7469.250; 1.18091
 986.23;  547.250;   51.750; 7739.250; 1.19074
 990.40;  574.250;   61.750; 7985.250; 1.18922
 994.56;  587.250;   65.750; 8243.250; 1.19537
 998.72;  607.250;   58.750; 8450.250; 1.18466
1002.88;  614.250;   57.750; 8670.250; 1.18966
1007.04;  642.250;   52.750; 8879.250; 1.17530
1011.20;  650.250;   49.750; 9068.250; 1.17662
1015.36;  656.250;   45.750; 9257.250; 1.17864
1019.51;  666.250;   60.750; 9402.250; 1.18830
1023.67;  688.250;   69.750; 9574.250; 1.18659
1027.82;  700.250;   61.750; 9729.250; 1.18015
1031.97;  704.250;   55.750; 9851.250; 1.17912
1036.12;  723.250;   49.750;10022.250; 1.17047
1040.27;  728.250;   61.750;10174.250; 1.18106
1044.41;  745.250;   73.750;10320.250; 1.18353
1048.56;  757.250;   53.750;10468.250; 1.17037
1052.70;  759.250;   58.750;10629.250; 1.17869
1056.84;  776.250;   47.750;10798.250; 1.16900
1060.98;  793.250;   67.750;10996.250; 1.17792
1065.11;  799.250;   63.750;11181.250; 1.17942
1069.25;  817.250;   63.750;11391.250; 1.17705
1073.38;  828.250;   56.750;11632.250; 1.17620
1077.52;  867.250;   70.750;11862.250; 1.17038
1081.65;  867.250;   62.750;12105.250; 1.17519
1085.77;  888.250;   60.750;12352.250; 1.17184
1089.90;  897.250;   56.750;12603.250; 1.17398
1094.03;  909.250;   65.750;12857.250; 1.18084
1098.15;  932.250;   68.750;13146.250; 1.18026
1102.27;  928.250;   66.750;13436.250; 1.19086
1106.39;  967.250;   69.750;13733.250; 1.18253
1110.51;  981.250;   69.750;14055.250; 1.18592
1114.63;  987.250;   49.750;14464.250; 1.18683
1118.74; 1025.250;   73.750;14874.250; 1.19187
1122.85; 1031.250;   70.750;15167.250; 1.19638
1126.96; 1030.250;   61.750;15350.250; 1.19827
1131.07; 1029.250;   57.750;15457.250; 1.20006
1135.18; 1012.250;   63.750;15545.250; 1.21278
1139.29; 1003.250;   45.750;15604.250; 1.21083
1143.39;  978.250;   62.750;15613.250; 1.23009
1147.49;  956.250;   71.750;15592.250; 1.24421
1151.59;  933.250;   71.750;15618.250; 1.25638
1155.69;  917.250;   64.750;15618.250; 1.26113
1159.78;  904.250;   61.750;15619.250; 1.26637
1163.88;  916.250;   66.750;15654.250; 1.26361
1167.97;  901.250;   60.750;15657.250; 1.26849
1172.06;  879.250;   60.750;15668.250; 1.28031
1176.15;  873.250;   53.750;15670.250; 1.28003
1180.23;  879.250;   59.750;15679.250; 1.28012
1184.32;  859.250;   50.750;15690.250; 1.28654
1188.40;  869.250;   57.750;15712.250; 1.28535
1192.48;  876.250;   55.750;15725.250; 1.28098
1196.56;  887.250;   53.750;15754.250; 1.27501
1200.64;  888.250;   72.750;15783.250; 1.28477
1204.71;  870.250;   50.750;15806.250; 1.28388
1208.78;  879.250;   69.750;15849.250; 1.28988
1212.85;  879.250;   54.750;15854.250; 1.28245
1216.92;  876.250;   37.750;15840.250; 1.27522
1220.99;  893.250;   49.750;15897.250; 1.27388
1225.05;  890.250;   60.750;15920.250; 1.28147
1229.11;  904.250;   53.750;15924.250; 1.27092
1233.17;  910.250;   58.750;15926.250; 1.27032
1237.23;  897.250;   49.750;15943.250; 1.27308
1241.29;  907.250;   51.750;15960.250; 1.26941
1245.34;  926.250;   79.750;16029.250; 1.27512
1249.39;  921.250;   55.750;16081.250; 1.26754
1253.44;  912.250;   36.750;16122.250; 1.26418
1257.49;  929.250;   73.750;16225.250; 1.27599
1261.53;  946.250;   40.750;16273.250; 1.25350
1265.58;  920.250;   46.750;16338.250; 1.27070
1269.62;  923.250;   46.750;16412.250; 1.27118
1273.65;  933.250;   55.750;16472.250; 1.27203
1277.69;  945.250;   53.750;16552.250; 1.26732
1281.72;  942.250;   65.750;16612.250; 1.27595
1285.76;  929.250;   66.750;16662.250; 1.28423
1289.79;  920.250;   56.750;16697.250; 1.28490
1293.81;  919.250;   44.750;16713.250; 1.28014
1297.84;  909.250;   49.750;16765.250; 1.28887
1301.86;  922.250;   43.750;16807.250; 1.28062
1305.88;  887.250;   58.750;16824.250; 1.30612
1309.90;  903.250;   49.750;16842.250; 1.29391
1313.92;  868.250;   55.750;16828.250; 1.31477
1317.93;  877.250;   65.750;16838.250; 1.31531
1321.94;  850.250;   46.750;16825.250; 1.31977
1325.95;  826.250;   64.750;16797.250; 1.34189
1329.96;  826.250;   63.750;16802.250; 1.34148
1333.96;  797.250;   52.750;16773.250; 1.35138
1337.96;  773.250;   63.750;16776.250; 1.37209
1341.96;  750.250;   46.750;16748.250; 1.37549
1345.96;  730.250;   59.750;16622.250; 1.39273
1349.95;  694.250;   42.750;16410.250; 1.40007
1353.95;  701.250;   67.750;16154.250; 1.40471
1357.94;  651.250;   50.750;15843.250; 1.41994
1361.92;  638.250;   50.750;15571.250; 1.42190
1365.91;  596.250;   46.750;15308.250; 1.44363
1369.89;  548.250;   50.750;15042.250; 1.47905
1373.87;  517.250;   48.750;14460.250; 1.48800
1377.85;  488.250;   60.750;13607.250; 1.50089
1381.82;  424.250;   48.750;12795.250; 1.53078
1385.80;  365.250;   50.750;12441.250; 1.59547
1389.77;  319.250;   54.750;12376.250; 1.66824
1393.74;  289.250;   63.750;12523.250; 1.74235
1397.70;  239.250;   57.750;12861.250; 1.84845
1401.66;  223.250;   57.750;13177.250; 1.89912
1405.62;  187.250;   34.750;13448.250; 1.94427
1409.58;  172.250;   50.750;13653.250; 2.04904
1413.54;  155.250;   50.750;13787.250; 2.11876
1417.49;  134.250;   27.750;13838.250; 2.11286
1421.44;  142.250;   63.750;13894.250; 2.24597
1425.39;  134.250;   54.750;13879.250; 2.24028
1429.33;  149.250;   64.750;13864.250; 2.21301
1433.27;  110.250;   54.750;13809.250; 2.39415
1437.21;  118.250;   48.750;13776.250; 2.29561
1441.15;  118.250;   52.750;13748.250; 2.32034
1445.09;  132.250;   60.750;13691.250; 2.28021
1449.02;  121.250;   57.750;13611.250; 2.32928
1452.95;  124.250;   52.750;13536.250; 2.27550
1456.87;  110.250;   53.750;13439.250; 2.37459
1460.80;  102.250;   43.750;13345.250; 2.35674
1464.72;  117.250;   59.750;13253.250; 2.36069
1468.64;  113.250;   43.750;13131.250; 2.27487
1472.55;  113.250;   63.750;13051.250; 2.41892
1476.47;  114.250;   43.750;12969.250; 2.26326
1480.38;  112.250;   38.750;12870.250; 2.24199
1484.28;  127.250;   54.750;12750.250; 2.24331
1488.19;  129.250;   50.750;12663.250; 2.20593
1492.09;  107.250;   28.750;12533.250; 2.20220
1495.99;  130.250;   58.750;12434.250; 2.23826
1499.89;  137.250;   46.750;12320.250; 2.13232
1503.78;  136.250;   48.750;12228.250; 2.14362
1507.67;  143.250;   52.750;12113.250; 2.12472
1511.56;  144.250;   33.750;11982.250; 2.03395
1515.44;  146.250;   50.750;11884.250; 2.09311
1519.33;  173.250;   48.750;11757.250; 1.97333
1523.21;  161.250;   35.750;11649.250; 1.96632
1527.08;  170.250;   57.750;11506.250; 2.00760
1530.96;  163.250;   39.750;11368.250; 1.96251
1534.83;  194.250;   52.750;11249.250; 1.89833
1538.70;  171.250;   57.750;11082.250; 1.98736
1542.56;  179.250;   28.750;10958.250; 1.86106
1546.42;  178.250;   39.750;10836.250; 1.89183
1550.28;  192.250;   58.750;10683.250; 1.90083
1554.14;  190.250;   39.750;10510.250; 1.84243
1557.99;  190.250;   41.750;10388.250; 1.84307
1561.84;  198.250;   33.750;10234.250; 1.79246
1565.69;  196.250;   40.750;10095.250; 1.81063
1569.54;  187.250;   24.750; 9939.250; 1.78542
1573.38;  194.250;   40.750; 9804.250; 1.80350
1577.22;  190.250;   31.750; 9649.250; 1.78303
1581.05;  196.250;   49.750; 9522.250; 1.81063
1584.89;  209.250;   45.750; 9369.250; 1.75606
1588.72;  198.250;   41.750; 9215.250; 1.76802
1592.54;  192.250;   35.750; 9061.250; 1.76096
1596.37;  188.250;   22.750; 8908.250; 1.72988
1600.19;  215.250;   43.750; 8774.250; 1.70677
1604.01;  195.250;   33.750; 8610.250; 1.72514
1607.82;  212.250;   31.750; 8473.250; 1.66994
1611.63;  201.250;   22.750; 8316.250; 1.66710
1615.44;  215.250;   26.750; 8167.250; 1.63534
1619.25;  186.250;   34.750; 7998.250; 1.72069
1623.05;  184.250;   13.750; 7822.250; 1.66084
1626.85;  193.250;   26.750; 7668.250; 1.66176
1630.64;  201.250;   42.750; 7511.250; 1.67320
1634.44;  194.250;   26.750; 7307.250; 1.63815
1638.23;  172.250;   18.750; 7114.250; 1.66487
1642.01;  177.250;   39.750; 6938.250; 1.70045
1645.80;  203.250;   42.750; 6743.250; 1.62063
1649.58;  183.250;   38.750; 6531.250; 1.65254
1653.35;  184.250;   44.750; 6309.250; 1.65231
1657.13;  173.250;   36.750; 6064.250; 1.64500
1660.90;  179.250;   34.750; 5808.250; 1.60157
1664.67;  154.250;   28.750; 5491.250; 1.63875
1668.43;  166.250;   24.750; 5119.250; 1.55635
1672.19;  153.250;   35.750; 4656.250; 1.59465
1675.95;  129.250;   31.750; 4113.250; 1.62182
1679.70;  124.250;   46.750; 3563.250; 1.65681
1683.46;  120.250;   23.750; 3047.250; 1.49598
1687.20;  118.250;   39.750; 2617.250; 1.51633
1690.95;  101.250;   36.750; 2243.250; 1.53414
1694.69;  111.250;   56.750; 1964.250; 1.54407
1698.43;   97.250;   22.750; 1699.250; 1.35225
1702.16;   91.250;   44.750; 1533.250; 1.50530
1705.89;   84.250;   30.750; 1372.250; 1.39924
1709.62;   87.250;   25.750; 1277.250; 1.30856
1713.35;   86.250;   17.750; 1187.250; 1.23231
1717.07;   95.250;   42.750; 1123.250; 1.31347
1720.79;   84.250;   41.750; 1064.250; 1.38127
1724.50;   93.250;   44.750; 1019.250; 1.30304
1728.21;   76.250;   29.750;  974.250; 1.30775
1731.92;   78.250;   25.750;  931.250; 1.23673
1735.63;   88.250;   34.750;  925.250; 1.22128
1739.33;   91.250;   23.750;  909.250; 1.11788
1743.02;   81.250;   21.750;  865.250; 1.15157
1746.72;   83.250;   33.750;  872.250; 1.22890
1750.41;   94.250;   37.750;  865.250; 1.16572
1754.10;   91.250;   44.750;  846.250; 1.23645

