
Integration time [ms]:   3.780
Averaging Nr. [scans]: 1
Smoothing Nr. [pixels]: 0
Data measured with spectrometer [name]: 1911294U1
Wave   ;Sample   ;Dark     ;Reference;Absorbance
[nm]   ;[counts] ;[counts] ;[counts] ;[A.U]

 860.61;  113.750;   67.750;  833.250; 1.22119
 864.82;  120.750;   49.750;  998.250; 1.12578
 869.02;  134.750;   59.750; 1169.250; 1.17007
 873.23;  135.750;   54.750; 1288.250; 1.18265
 877.43;  158.750;   53.750; 1415.250; 1.11283
 881.63;  162.750;   54.750; 1540.250; 1.13845
 885.83;  166.750;   49.750; 1684.250; 1.14520
 890.03;  171.750;   28.750; 1796.250; 1.09202
 894.23;  171.750;   40.750; 1929.250; 1.15885
 898.42;  191.750;   37.750; 2071.250; 1.12072
 902.62;  199.750;   56.750; 2213.250; 1.17841
 906.81;  217.750;   35.750; 2337.250; 1.10194
 911.00;  213.750;   53.750; 2523.250; 1.18849
 915.19;  233.750;   45.750; 2712.250; 1.15178
 919.38;  257.750;   47.750; 2963.250; 1.14249
 923.57;  287.750;   53.750; 3292.250; 1.14113
 927.76;  302.750;   40.750; 3728.250; 1.14843
 931.94;  326.750;   39.750; 4163.250; 1.15738
 936.13;  374.750;   53.750; 4579.250; 1.14916
 940.31;  370.750;   50.750; 4873.250; 1.17812
 944.49;  415.750;   63.750; 5167.250; 1.16133
 948.67;  415.750;   49.750; 5411.250; 1.16581
 952.85;  419.750;   50.750; 5679.250; 1.18337
 957.03;  457.750;   47.750; 5965.250; 1.15935
 961.21;  469.750;   58.750; 6236.250; 1.17697
 965.38;  485.750;   44.750; 6471.250; 1.16354
 969.55;  481.750;   37.750; 6719.250; 1.17749
 973.73;  503.750;   56.750; 6971.250; 1.18945
 977.90;  510.750;   42.750; 7222.250; 1.18585
 982.06;  546.750;   44.750; 7469.250; 1.16996
 986.23;  554.750;   51.750; 7739.250; 1.18422
 990.40;  582.750;   61.750; 7985.250; 1.18208
 994.56;  595.750;   65.750; 8243.250; 1.18834
 998.72;  601.750;   58.750; 8450.250; 1.18904
1002.88;  621.750;   57.750; 8670.250; 1.18385
1007.04;  649.750;   52.750; 8879.250; 1.16981
1011.20;  651.750;   49.750; 9068.250; 1.17554
1015.36;  665.750;   45.750; 9257.250; 1.17194
1019.51;  680.750;   60.750; 9402.250; 1.17802
1023.67;  684.750;   69.750; 9574.250; 1.18905
1027.82;  706.750;   61.750; 9729.250; 1.17575
1031.97;  707.750;   55.750; 9851.250; 1.17678
1036.12;  734.750;   49.750;10022.250; 1.16311
1040.27;  722.750;   61.750;10174.250; 1.18466
1044.41;  742.750;   73.750;10320.250; 1.18515
1048.56;  745.750;   53.750;10468.250; 1.17753
1052.70;  773.750;   58.750;10629.250; 1.16979
1056.84;  773.750;   47.750;10798.250; 1.17049
1060.98;  795.750;   67.750;10996.250; 1.17643
1065.11;  789.750;   63.750;11181.250; 1.18507
1069.25;  812.750;   63.750;11391.250; 1.17965
1073.38;  828.750;   56.750;11632.250; 1.17592
1077.52;  850.750;   70.750;11862.250; 1.17947
1081.65;  855.750;   62.750;12105.250; 1.18144
1085.77;  874.750;   60.750;12352.250; 1.17898
1089.90;  888.750;   56.750;12603.250; 1.17840
1094.03;  900.750;   65.750;12857.250; 1.18523
1098.15;  929.750;   68.750;13146.250; 1.18152
1102.27;  941.750;   66.750;13436.250; 1.18411
1106.39;  975.750;   69.750;13733.250; 1.17843
1110.51;  974.750;   69.750;14055.250; 1.18903
1114.63;  984.750;   49.750;14464.250; 1.18799
1118.74; 1024.750;   73.750;14874.250; 1.19210
1122.85; 1024.750;   70.750;15167.250; 1.19933
1126.96; 1025.750;   61.750;15350.250; 1.20029
1131.07; 1035.750;   57.750;15457.250; 1.19717
1135.18; 1018.750;   63.750;15545.250; 1.20981
1139.29;  980.750;   45.750;15604.250; 1.22116
1143.39;  976.750;   62.750;15613.250; 1.23080
1147.49;  956.750;   71.750;15592.250; 1.24396
1151.59;  925.750;   71.750;15618.250; 1.26017
1155.69;  927.750;   64.750;15618.250; 1.25582
1159.78;  898.750;   61.750;15619.250; 1.26921
1163.88;  908.750;   66.750;15654.250; 1.26746
1167.97;  896.750;   60.750;15657.250; 1.27082
1172.06;  884.750;   60.750;15668.250; 1.27741
1176.15;  869.750;   53.750;15670.250; 1.28189
1180.23;  869.750;   59.750;15679.250; 1.28518
1184.32;  868.750;   50.750;15690.250; 1.28147
1188.40;  868.750;   57.750;15712.250; 1.28562
1192.48;  854.750;   55.750;15725.250; 1.29251
1196.56;  868.750;   53.750;15754.250; 1.28476
1200.64;  876.750;   72.750;15783.250; 1.29093
1204.71;  862.750;   50.750;15806.250; 1.28788
1208.78;  892.750;   69.750;15849.250; 1.28269
1212.85;  873.750;   54.750;15854.250; 1.28536
1216.92;  854.750;   37.750;15840.250; 1.28650
1220.99;  884.750;   49.750;15897.250; 1.27827
1225.05;  893.750;   60.750;15920.250; 1.27964
1229.11;  894.750;   53.750;15924.250; 1.27579
1233.17;  884.750;   58.750;15926.250; 1.28353
1237.23;  897.750;   49.750;15943.250; 1.27282
1241.29;  906.750;   51.750;15960.250; 1.26966
1245.34;  916.750;   79.750;16029.250; 1.28002
1249.39;  905.750;   55.750;16081.250; 1.27539
1253.44;  918.750;   36.750;16122.250; 1.26097
1257.49;  936.750;   73.750;16225.250; 1.27220
1261.53;  925.750;   40.750;16273.250; 1.26344
1265.58;  942.750;   46.750;16338.250; 1.25965
1269.62;  926.750;   46.750;16412.250; 1.26945
1273.65;  939.750;   55.750;16472.250; 1.26883
1277.69;  938.750;   53.750;16552.250; 1.27050
1281.72;  948.750;   65.750;16612.250; 1.27275
1285.76;  939.750;   66.750;16662.250; 1.27898
1289.79;  939.750;   56.750;16697.250; 1.27521
1293.81;  927.750;   44.750;16713.250; 1.27594
1297.84;  911.750;   49.750;16765.250; 1.28761
1301.86;  898.750;   43.750;16807.250; 1.29240
1305.88;  915.750;   58.750;16824.250; 1.29144
1309.90;  903.750;   49.750;16842.250; 1.29366
1313.92;  887.750;   55.750;16828.250; 1.30447
1317.93;  879.750;   65.750;16838.250; 1.31397
1321.94;  855.750;   46.750;16825.250; 1.31680
1325.95;  839.750;   64.750;16797.250; 1.33426
1329.96;  839.750;   63.750;16802.250; 1.33385
1333.96;  787.750;   52.750;16773.250; 1.35696
1337.96;  767.750;   63.750;16776.250; 1.37547
1341.96;  763.750;   46.750;16748.250; 1.36724
1345.96;  727.750;   59.750;16622.250; 1.39435
1349.95;  695.750;   42.750;16410.250; 1.39907
1353.95;  683.750;   67.750;16154.250; 1.41688
1357.94;  641.750;   50.750;15843.250; 1.42686
1361.92;  629.750;   50.750;15571.250; 1.42823
1365.91;  595.750;   46.750;15308.250; 1.44402
1369.89;  565.750;   50.750;15042.250; 1.46404
1373.87;  519.750;   48.750;14460.250; 1.48569
1377.85;  466.750;   60.750;13607.250; 1.52330
1381.82;  404.750;   48.750;12795.250; 1.55394
1385.80;  363.750;   50.750;12441.250; 1.59754
1389.77;  314.750;   54.750;12376.250; 1.67569
1393.74;  255.750;   63.750;12523.250; 1.81220
1397.70;  227.750;   57.750;12861.250; 1.87688
1401.66;  194.750;   57.750;13177.250; 1.98120
1405.62;  183.750;   34.750;13448.250; 1.95436
1409.58;  147.750;   50.750;13653.250; 2.14685
1413.54;  119.750;   50.750;13787.250; 2.29903
1417.49;  103.750;   27.750;13838.250; 2.25940
1421.44;  107.750;   63.750;13894.250; 2.49739
1425.39;  115.750;   54.750;13879.250; 2.35532
1429.33;  123.750;   64.750;13864.250; 2.36901
1433.27;  107.750;   54.750;13809.250; 2.41417
1437.21;  111.750;   48.750;13776.250; 2.33825
1441.15;  107.750;   52.750;13748.250; 2.39622
1445.09;  105.750;   60.750;13691.250; 2.48130
1449.02;  101.750;   57.750;13611.250; 2.48860
1452.95;   99.750;   52.750;13536.250; 2.45770
1456.87;   95.750;   53.750;13439.250; 2.50339
1460.80;   93.750;   43.750;13345.250; 2.42493
1464.72;  106.750;   59.750;13253.250; 2.44826
1468.64;   90.750;   43.750;13131.250; 2.44476
1472.55;  103.750;   63.750;13051.250; 2.51147
1476.47;   95.750;   43.750;12969.250; 2.39544
1480.38;  100.750;   38.750;12870.250; 2.31589
1484.28;  103.750;   54.750;12750.250; 2.41345
1488.19;  111.750;   50.750;12663.250; 2.31547
1492.09;   87.750;   28.750;12533.250; 2.32621
1495.99;  123.750;   58.750;12434.250; 2.27965
1499.89;  126.750;   46.750;12320.250; 2.18588
1503.78;  111.750;   48.750;12228.250; 2.28629
1507.67;  123.750;   52.750;12113.250; 2.23011
1511.56;  123.750;   33.750;11982.250; 2.12307
1515.44;  123.750;   50.750;11884.250; 2.20979
1519.33;  155.750;   48.750;11757.250; 2.03912
1523.21;  151.750;   35.750;11649.250; 2.00051
1527.08;  155.750;   57.750;11506.250; 2.06752
1530.96;  153.750;   39.750;11368.250; 1.99727
1534.83;  177.750;   52.750;11249.250; 1.95217
1538.70;  171.750;   57.750;11082.250; 1.98545
1542.56;  165.750;   28.750;10958.250; 1.90188
1546.42;  171.750;   39.750;10836.250; 1.91271
1550.28;  190.750;   58.750;10683.250; 1.90573
1554.14;  174.750;   39.750;10510.250; 1.88963
1557.99;  169.750;   41.750;10388.250; 1.90758
1561.84;  194.750;   33.750;10234.250; 1.80180
1565.69;  193.750;   40.750;10095.250; 1.81767
1569.54;  187.750;   24.750; 9939.250; 1.78408
1573.38;  191.750;   40.750; 9804.250; 1.81063
1577.22;  200.750;   31.750; 9649.250; 1.75518
1581.05;  207.750;   49.750; 9522.250; 1.77781
1584.89;  206.750;   45.750; 9369.250; 1.76275
1588.72;  211.750;   41.750; 9215.250; 1.73209
1592.54;  211.750;   35.750; 9061.250; 1.70996
1596.37;  210.750;   22.750; 8908.250; 1.67452
1600.19;  211.750;   43.750; 8774.250; 1.71573
1604.01;  211.750;   33.750; 8610.250; 1.68289
1607.82;  207.750;   31.750; 8473.250; 1.68091
1611.63;  203.750;   22.750; 8316.250; 1.66106
1615.44;  225.750;   26.750; 8167.250; 1.61180
1619.25;  197.750;   34.750; 7998.250; 1.68892
1623.05;  191.750;   13.750; 7822.250; 1.64215
1626.85;  203.750;   26.750; 7668.250; 1.63521
1630.64;  225.750;   42.750; 7511.250; 1.61078
1634.44;  202.750;   26.750; 7307.250; 1.61665
1638.23;  200.750;   18.750; 7114.250; 1.59091
1642.01;  209.750;   39.750; 6938.250; 1.60831
1645.80;  203.750;   42.750; 6743.250; 1.61928
1649.58;  192.750;   38.750; 6531.250; 1.62489
1653.35;  193.750;   44.750; 6309.250; 1.62370
1657.13;  170.750;   36.750; 6064.250; 1.65303
1660.90;  190.750;   34.750; 5808.250; 1.56831
1664.67;  163.750;   28.750; 5491.250; 1.60706
1668.43;  178.750;   24.750; 5119.250; 1.51958
1672.19;  160.750;   35.750; 4656.250; 1.56778
1675.95;  147.750;   31.750; 4113.250; 1.54636
1679.70;  127.750;   46.750; 3563.250; 1.63763
1683.46;  127.750;   23.750; 3047.250; 1.46348
1687.20;  127.750;   39.750; 2617.250; 1.46672
1690.95;  102.750;   36.750; 2243.250; 1.52416
1694.69;  111.750;   56.750; 1964.250; 1.54010
1698.43;  101.750;   22.750; 1699.250; 1.32678
1702.16;  101.750;   44.750; 1533.250; 1.41687
1705.89;   87.750;   30.750; 1372.250; 1.37172
1709.62;   93.750;   25.750; 1277.250; 1.26492
1713.35;   83.750;   17.750; 1187.250; 1.24846
1717.07;   98.750;   42.750; 1123.250; 1.28544
1720.79;   84.750;   41.750; 1064.250; 1.37619
1724.50;   91.750;   44.750; 1019.250; 1.31668
1728.21;   94.750;   29.750;  974.250; 1.16229
1731.92;   87.750;   25.750;  931.250; 1.16450
1735.63;   87.750;   34.750;  925.250; 1.22536
1739.33;   98.750;   23.750;  909.250; 1.07213
1743.02;   81.750;   21.750;  865.250; 1.14793
1746.72;   85.750;   33.750;  872.250; 1.20750
1750.41;   99.750;   37.750;  865.250; 1.12538
1754.10;   93.750;   44.750;  846.250; 1.21371

