
Integration time [ms]:   3.780
Averaging Nr. [scans]: 1
Smoothing Nr. [pixels]: 0
Data measured with spectrometer [name]: 1911294U1
Wave   ;Sample   ;Dark     ;Reference;Absorbance
[nm]   ;[counts] ;[counts] ;[counts] ;[A.U]

 860.61;  146.250;   67.750;  833.250; 0.98908
 864.82;  165.250;   49.750;  998.250; 0.91446
 869.02;  184.250;   59.750; 1169.250; 0.94996
 873.23;  177.250;   54.750; 1288.250; 1.00300
 877.43;  204.250;   53.750; 1415.250; 0.95648
 881.63;  241.250;   54.750; 1540.250; 0.90119
 885.83;  237.250;   49.750; 1684.250; 0.94038
 890.03;  246.250;   28.750; 1796.250; 0.90990
 894.23;  261.250;   40.750; 1929.250; 0.93271
 898.42;  280.250;   37.750; 2071.250; 0.92353
 902.62;  289.250;   56.750; 2213.250; 0.96733
 906.81;  309.250;   35.750; 2337.250; 0.92505
 911.00;  329.250;   53.750; 2523.250; 0.95249
 915.19;  355.250;   45.750; 2712.250; 0.93528
 919.38;  398.250;   47.750; 2963.250; 0.92003
 923.57;  405.250;   53.750; 3292.250; 0.96442
 927.76;  473.250;   40.750; 3728.250; 0.93075
 931.94;  527.250;   39.750; 4163.250; 0.92729
 936.13;  566.250;   53.750; 4579.250; 0.94597
 940.31;  603.250;   50.750; 4873.250; 0.94094
 944.49;  637.250;   63.750; 5167.250; 0.94933
 948.67;  653.250;   49.750; 5411.250; 0.94861
 952.85;  702.250;   50.750; 5679.250; 0.93648
 957.03;  719.250;   47.750; 5965.250; 0.94509
 961.21;  744.250;   58.750; 6236.250; 0.95481
 965.38;  771.250;   44.750; 6471.250; 0.94674
 969.55;  781.250;   37.750; 6719.250; 0.95359
 973.73;  817.250;   56.750; 6971.250; 0.95866
 977.90;  832.250;   42.750; 7222.250; 0.95874
 982.06;  870.250;   44.750; 7469.250; 0.95395
 986.23;  892.250;   51.750; 7739.250; 0.96125
 990.40;  937.250;   61.750; 7985.250; 0.95666
 994.56;  951.250;   65.750; 8243.250; 0.96543
 998.72;  976.250;   58.750; 8450.250; 0.96123
1002.88; 1001.250;   57.750; 8670.250; 0.96039
1007.04; 1018.250;   52.750; 8879.250; 0.96104
1011.20; 1039.250;   49.750; 9068.250; 0.95972
1015.36; 1060.250;   45.750; 9257.250; 0.95808
1019.51; 1082.250;   60.750; 9402.250; 0.96118
1023.67; 1101.250;   69.750; 9574.250; 0.96446
1027.82; 1115.250;   61.750; 9729.250; 0.96268
1031.97; 1138.250;   55.750; 9851.250; 0.95660
1036.12; 1158.250;   49.750;10022.250; 0.95407
1040.27; 1163.250;   61.750;10174.250; 0.96287
1044.41; 1193.250;   73.750;10320.250; 0.96155
1048.56; 1198.250;   53.750;10468.250; 0.95902
1052.70; 1221.250;   58.750;10629.250; 0.95870
1056.84; 1221.250;   47.750;10798.250; 0.96195
1060.98; 1266.250;   67.750;10996.250; 0.95992
1065.11; 1281.250;   63.750;11181.250; 0.96054
1069.25; 1295.250;   63.750;11391.250; 0.96370
1073.38; 1319.250;   56.750;11632.250; 0.96231
1077.52; 1357.250;   70.750;11862.250; 0.96216
1081.65; 1365.250;   62.750;12105.250; 0.96594
1085.77; 1405.250;   60.750;12352.250; 0.96104
1089.90; 1412.250;   56.750;12603.250; 0.96642
1094.03; 1448.250;   65.750;12857.250; 0.96626
1098.15; 1481.250;   68.750;13146.250; 0.96654
1102.27; 1499.250;   66.750;13436.250; 0.97002
1106.39; 1549.250;   69.750;13733.250; 0.96545
1110.51; 1556.250;   69.750;14055.250; 0.97351
1114.63; 1598.250;   49.750;14464.250; 0.96889
1118.74; 1647.250;   73.750;14874.250; 0.97341
1122.85; 1672.250;   70.750;15167.250; 0.97435
1126.96; 1683.250;   61.750;15350.250; 0.97445
1131.07; 1688.250;   57.750;15457.250; 0.97519
1135.18; 1667.250;   63.750;15545.250; 0.98474
1139.29; 1648.250;   45.750;15604.250; 0.98717
1143.39; 1650.250;   62.750;15613.250; 0.99103
1147.49; 1612.250;   71.750;15592.250; 1.00324
1151.59; 1588.250;   71.750;15618.250; 1.01079
1155.69; 1588.250;   64.750;15618.250; 1.00899
1159.78; 1574.250;   61.750;15619.250; 1.01224
1163.88; 1577.250;   66.750;15654.250; 1.01366
1167.97; 1568.250;   60.750;15657.250; 1.01477
1172.06; 1554.250;   60.750;15668.250; 1.01913
1176.15; 1550.250;   53.750;15670.250; 1.01851
1180.23; 1549.250;   59.750;15679.250; 1.02063
1184.32; 1537.250;   50.750;15690.250; 1.02206
1188.40; 1552.250;   57.750;15712.250; 1.02014
1192.48; 1543.250;   55.750;15725.250; 1.02260
1196.56; 1549.250;   53.750;15754.250; 1.02113
1200.64; 1553.250;   72.750;15783.250; 1.02578
1204.71; 1541.250;   50.750;15806.250; 1.02410
1208.78; 1566.250;   69.750;15849.250; 1.02302
1212.85; 1544.250;   54.750;15854.250; 1.02560
1216.92; 1545.250;   37.750;15840.250; 1.02047
1220.99; 1575.250;   49.750;15897.250; 1.01655
1225.05; 1579.250;   60.750;15920.250; 1.01887
1229.11; 1571.250;   53.750;15924.250; 1.01946
1233.17; 1582.250;   58.750;15926.250; 1.01767
1237.23; 1599.250;   49.750;15943.250; 1.01103
1241.29; 1580.250;   51.750;15960.250; 1.01736
1245.34; 1602.250;   79.750;16029.250; 1.02019
1249.39; 1602.250;   55.750;16081.250; 1.01546
1253.44; 1609.250;   36.750;16122.250; 1.00984
1257.49; 1636.250;   73.750;16225.250; 1.01439
1261.53; 1636.250;   40.750;16273.250; 1.00749
1265.58; 1643.250;   46.750;16338.250; 1.00879
1269.62; 1641.250;   46.750;16412.250; 1.01130
1273.65; 1651.250;   55.750;16472.250; 1.01238
1277.69; 1650.250;   53.750;16552.250; 1.01428
1281.72; 1662.250;   65.750;16612.250; 1.01554
1285.76; 1656.250;   66.750;16662.250; 1.01873
1289.79; 1649.250;   56.750;16697.250; 1.01909
1293.81; 1650.250;   44.750;16713.250; 1.01629
1297.84; 1647.250;   49.750;16765.250; 1.01968
1301.86; 1637.250;   43.750;16807.250; 1.02201
1305.88; 1640.250;   58.750;16824.250; 1.02535
1309.90; 1625.250;   49.750;16842.250; 1.02770
1313.92; 1607.250;   55.750;16828.250; 1.03385
1317.93; 1602.250;   65.750;16838.250; 1.03807
1321.94; 1573.250;   46.750;16825.250; 1.04106
1325.95; 1552.250;   64.750;16797.250; 1.05110
1329.96; 1551.250;   63.750;16802.250; 1.05126
1333.96; 1516.250;   52.750;16773.250; 1.05786
1337.96; 1497.250;   63.750;16776.250; 1.06664
1341.96; 1449.250;   46.750;16748.250; 1.07585
1345.96; 1434.250;   59.750;16622.250; 1.08098
1349.95; 1390.250;   42.750;16410.250; 1.08445
1353.95; 1358.250;   67.750;16154.250; 1.09570
1357.94; 1313.250;   50.750;15843.250; 1.09722
1361.92; 1271.250;   50.750;15571.250; 1.10437
1365.91; 1217.250;   46.750;15308.250; 1.11523
1369.89; 1175.250;   50.750;15042.250; 1.12489
1373.87; 1095.250;   48.750;14460.250; 1.13897
1377.85;  995.250;   60.750;13607.250; 1.16125
1381.82;  880.250;   48.750;12795.250; 1.18553
1385.80;  791.250;   50.750;12441.250; 1.22356
1389.77;  716.250;   54.750;12376.250; 1.27013
1393.74;  630.250;   63.750;12523.250; 1.34230
1397.70;  558.250;   57.750;12861.250; 1.40792
1401.66;  482.250;   57.750;13177.250; 1.49004
1405.62;  442.250;   34.750;13448.250; 1.51741
1409.58;  396.250;   50.750;13653.250; 1.59517
1413.54;  347.250;   50.750;13787.250; 1.66585
1417.49;  309.250;   27.750;13838.250; 1.69073
1421.44;  305.250;   63.750;13894.250; 1.75792
1425.39;  297.250;   54.750;13879.250; 1.75594
1429.33;  282.250;   64.750;13864.250; 1.80240
1433.27;  254.250;   54.750;13809.250; 1.83850
1437.21;  243.250;   48.750;13776.250; 1.84867
1441.15;  263.250;   52.750;13748.250; 1.81333
1445.09;  255.250;   60.750;13691.250; 1.84559
1449.02;  237.250;   57.750;13611.250; 1.87799
1452.95;  247.250;   52.750;13536.250; 1.84088
1456.87;  238.250;   53.750;13439.250; 1.86064
1460.80;  228.250;   43.750;13345.250; 1.85790
1464.72;  250.250;   59.750;13253.250; 1.84047
1468.64;  243.250;   43.750;13131.250; 1.81691
1472.55;  264.250;   63.750;13051.250; 1.81141
1476.47;  263.250;   43.750;12969.250; 1.77001
1480.38;  278.250;   38.750;12870.250; 1.72897
1484.28;  273.250;   54.750;12750.250; 1.76420
1488.19;  306.250;   50.750;12663.250; 1.69341
1492.09;  296.250;   28.750;12533.250; 1.66974
1495.99;  330.250;   58.750;12434.250; 1.65879
1499.89;  337.250;   46.750;12320.250; 1.62582
1503.78;  351.250;   48.750;12228.250; 1.60490
1507.67;  385.250;   52.750;12113.250; 1.55957
1511.56;  382.250;   33.750;11982.250; 1.53511
1515.44;  375.250;   50.750;11884.250; 1.56190
1519.33;  431.250;   48.750;11757.250; 1.48587
1523.21;  422.250;   35.750;11649.250; 1.47781
1527.08;  441.250;   57.750;11506.250; 1.47498
1530.96;  453.250;   39.750;11368.250; 1.43770
1534.83;  462.250;   52.750;11249.250; 1.43683
1538.70;  460.250;   57.750;11082.250; 1.43759
1542.56;  485.250;   28.750;10958.250; 1.37916
1546.42;  493.250;   39.750;10836.250; 1.37671
1550.28;  505.250;   58.750;10683.250; 1.37649
1554.14;  509.250;   39.750;10510.250; 1.34833
1557.99;  516.250;   41.750;10388.250; 1.33856
1561.84;  513.250;   33.750;10234.250; 1.32783
1565.69;  537.250;   40.750;10095.250; 1.30644
1569.54;  521.250;   24.750; 9939.250; 1.30035
1573.38;  533.250;   40.750; 9804.250; 1.29720
1577.22;  542.250;   31.750; 9649.250; 1.27507
1581.05;  539.250;   49.750; 9522.250; 1.28671
1584.89;  543.250;   45.750; 9369.250; 1.27279
1588.72;  539.250;   41.750; 9215.250; 1.26574
1592.54;  531.250;   35.750; 9061.250; 1.26043
1596.37;  523.250;   22.750; 8908.250; 1.24928
1600.19;  544.250;   43.750; 8774.250; 1.24164
1604.01;  542.250;   33.750; 8610.250; 1.22702
1607.82;  532.250;   31.750; 8473.250; 1.22702
1611.63;  506.250;   22.750; 8316.250; 1.23434
1615.44;  542.250;   26.750; 8167.250; 1.19842
1619.25;  520.250;   34.750; 7998.250; 1.21491
1623.05;  505.250;   13.750; 7822.250; 1.20104
1626.85;  508.250;   26.750; 7668.250; 1.20058
1630.64;  531.250;   42.750; 7511.250; 1.18437
1634.44;  489.250;   26.750; 7307.250; 1.19705
1638.23;  476.250;   18.750; 7114.250; 1.19059
1642.01;  493.250;   39.750; 6938.250; 1.18218
1645.80;  480.250;   42.750; 6743.250; 1.18513
1649.58;  452.250;   38.750; 6531.250; 1.19594
1653.35;  457.250;   44.750; 6309.250; 1.18146
1657.13;  428.250;   36.750; 6064.250; 1.18741
1660.90;  415.250;   34.750; 5808.250; 1.18108
1664.67;  398.250;   28.750; 5491.250; 1.16978
1668.43;  370.250;   24.750; 5119.250; 1.16865
1672.19;  341.250;   35.750; 4656.250; 1.17968
1675.95;  304.250;   31.750; 4113.250; 1.17545
1679.70;  276.250;   46.750; 3563.250; 1.18533
1683.46;  235.250;   23.750; 3047.250; 1.15520
1687.20;  213.250;   39.750; 2617.250; 1.17190
1690.95;  207.250;   36.750; 2243.250; 1.11198
1694.69;  178.250;   56.750; 1964.250; 1.19589
1698.43;  152.250;   22.750; 1699.250; 1.11213
1702.16;  148.250;   44.750; 1533.250; 1.15781
1705.89;  139.250;   30.750; 1372.250; 1.09216
1709.62;  130.250;   25.750; 1277.250; 1.07831
1713.35;  131.250;   17.750; 1187.250; 1.01300
1717.07;  132.250;   42.750; 1123.250; 1.08180
1720.79;  136.250;   41.750; 1064.250; 1.03423
1724.50;  130.250;   44.750; 1019.250; 1.05682
1728.21;  125.250;   29.750;  974.250; 0.99520
1731.92;  120.250;   25.750;  931.250; 0.98146
1735.63;  116.250;   34.750;  925.250; 1.03848
1739.33;  120.250;   23.750;  909.250; 0.96266
1743.02;  111.250;   21.750;  865.250; 0.97426
1746.72;  115.250;   33.750;  872.250; 1.01235
1750.41;  134.250;   37.750;  865.250; 0.93324
1754.10;  126.250;   44.750;  846.250; 0.99275

