
Integration time [ms]:   3.780
Averaging Nr. [scans]: 1
Smoothing Nr. [pixels]: 0
Data measured with spectrometer [name]: 1911294U1
Wave   ;Sample   ;Dark     ;Reference;Absorbance
[nm]   ;[counts] ;[counts] ;[counts] ;[A.U]

 860.61;   70.500;   67.750;  833.250; 2.44461
 864.82;   66.500;   49.750;  998.250; 1.75302
 869.02;   76.500;   59.750; 1169.250; 1.82111
 873.23;   61.500;   54.750; 1288.250; 2.26184
 877.43;   63.500;   53.750; 1415.250; 2.14501
 881.63;   78.500;   54.750; 1540.250; 1.79621
 885.83;   56.500;   49.750; 1684.250; 2.38408
 890.03;   53.500;   28.750; 1796.250; 1.85378
 894.23;   48.500;   40.750; 1929.250; 2.38682
 898.42;   71.500;   37.750; 2071.250; 1.77997
 902.62;   68.500;   56.750; 2213.250; 2.26371
 906.81;   53.500;   35.750; 2337.250; 2.11281
 911.00;   66.500;   53.750; 2523.250; 2.28710
 915.19;   67.500;   45.750; 2712.250; 2.08848
 919.38;   85.500;   47.750; 2963.250; 1.88780
 923.57;   77.500;   53.750; 3292.250; 2.13468
 927.76;   82.500;   40.750; 3728.250; 1.94608
 931.94;   74.500;   39.750; 4163.250; 2.07431
 936.13;   81.500;   53.750; 4579.250; 2.21240
 940.31;   96.500;   50.750; 4873.250; 2.02288
 944.49;   92.500;   63.750; 5167.250; 2.24923
 948.67;   84.500;   49.750; 5411.250; 2.18833
 952.85;   86.500;   50.750; 5679.250; 2.19712
 957.03;  104.500;   47.750; 5965.250; 2.01817
 961.21;  105.500;   58.750; 6236.250; 2.12103
 965.38;  101.500;   44.750; 6471.250; 2.05401
 969.55;   87.500;   37.750; 6719.250; 2.12808
 973.73;  104.500;   56.750; 6971.250; 2.16079
 977.90;   99.500;   42.750; 7222.250; 2.10213
 982.06;  112.500;   44.750; 7469.250; 2.03976
 986.23;  108.500;   51.750; 7739.250; 2.13182
 990.40;  121.500;   61.750; 7985.250; 2.12258
 994.56;  115.500;   65.750; 8243.250; 2.21583
 998.72;  123.500;   58.750; 8450.250; 2.11260
1002.88;  131.500;   57.750; 8670.250; 2.06737
1007.04;  125.500;   52.750; 8879.250; 2.08396
1011.20;  134.500;   49.750; 9068.250; 2.02699
1015.36;  129.500;   45.750; 9257.250; 2.04135
1019.51;  123.500;   60.750; 9402.250; 2.17280
1023.67;  125.500;   69.750; 9574.250; 2.23168
1027.82;  138.500;   61.750; 9729.250; 2.10024
1031.97;  132.500;   55.750; 9851.250; 2.10595
1036.12;  136.500;   49.750;10022.250; 2.06053
1040.27;  139.500;   61.750;10174.250; 2.11416
1044.41;  152.500;   73.750;10320.250; 2.11432
1048.56;  150.500;   53.750;10468.250; 2.03199
1052.70;  147.500;   58.750;10629.250; 2.07593
1056.84;  141.500;   47.750;10798.250; 2.05946
1060.98;  149.500;   67.750;10996.250; 2.12607
1065.11;  151.500;   63.750;11181.250; 2.10276
1069.25;  144.500;   63.750;11391.250; 2.14699
1073.38;  161.500;   56.750;11632.250; 2.04339
1077.52;  166.500;   70.750;11862.250; 2.09043
1081.65;  152.500;   62.750;12105.250; 2.12768
1085.77;  153.500;   60.750;12352.250; 2.12229
1089.90;  169.500;   56.750;12603.250; 2.04641
1094.03;  168.500;   65.750;12857.250; 2.09514
1098.15;  188.500;   68.750;13146.250; 2.03825
1102.27;  167.500;   66.750;13436.250; 2.12287
1106.39;  188.500;   69.750;13733.250; 2.06093
1110.51;  180.500;   69.750;14055.250; 2.10133
1114.63;  161.500;   49.750;14464.250; 2.11055
1118.74;  193.500;   73.750;14874.250; 2.09200
1122.85;  197.500;   70.750;15167.250; 2.07593
1126.96;  179.500;   61.750;15350.250; 2.11340
1131.07;  199.500;   57.750;15457.250; 2.03598
1135.18;  186.500;   63.750;15545.250; 2.10079
1139.29;  168.500;   45.750;15604.250; 2.10295
1143.39;  162.500;   62.750;15613.250; 2.19283
1147.49;  163.500;   71.750;15592.250; 2.22830
1151.59;  149.500;   71.750;15618.250; 2.30093
1155.69;  146.500;   64.750;15618.250; 2.27934
1159.78;  139.500;   61.750;15619.250; 2.30124
1163.88;  166.500;   66.750;15654.250; 2.19386
1167.97;  147.500;   60.750;15657.250; 2.25476
1172.06;  138.500;   60.750;15668.250; 2.30263
1176.15;  146.500;   53.750;15670.250; 2.22627
1180.23;  137.500;   59.750;15679.250; 2.30297
1184.32;  134.500;   50.750;15690.250; 2.27124
1188.40;  139.500;   57.750;15712.250; 2.28215
1192.48;  140.500;   55.750;15725.250; 2.26692
1196.56;  146.500;   53.750;15754.250; 2.22860
1200.64;  158.500;   72.750;15783.250; 2.26296
1204.71;  140.500;   50.750;15806.250; 2.24440
1208.78;  143.500;   69.750;15849.250; 2.33033
1212.85;  139.500;   54.750;15854.250; 2.27050
1216.92;  132.500;   37.750;15840.250; 2.22215
1220.99;  144.500;   49.750;15897.250; 2.22338
1225.05;  153.500;   60.750;15920.250; 2.23298
1229.11;  141.500;   53.750;15924.250; 2.25734
1233.17;  147.500;   58.750;15926.250; 2.25234
1237.23;  159.500;   49.750;15943.250; 2.16082
1241.29;  139.500;   51.750;15960.250; 2.25838
1245.34;  170.500;   79.750;16029.250; 2.24490
1249.39;  150.500;   55.750;16081.250; 2.22823
1253.44;  141.500;   36.750;16122.250; 2.18628
1257.49;  163.500;   73.750;16225.250; 2.25518
1261.53;  147.500;   40.750;16273.250; 2.18202
1265.58;  158.500;   46.750;16338.250; 2.16371
1269.62;  140.500;   46.750;16412.250; 2.24196
1273.65;  146.500;   55.750;16472.250; 2.25743
1277.69;  159.500;   53.750;16552.250; 2.19316
1281.72;  159.500;   65.750;16612.250; 2.24673
1285.76;  146.500;   66.750;16662.250; 2.31826
1289.79;  143.500;   56.750;16697.250; 2.28290
1293.81;  146.500;   44.750;16713.250; 2.21436
1297.84;  143.500;   49.750;16765.250; 2.25115
1301.86;  155.500;   43.750;16807.250; 2.17612
1305.88;  158.500;   58.750;16824.250; 2.22550
1309.90;  161.500;   49.750;16842.250; 2.17687
1313.92;  140.500;   55.750;16828.250; 2.29646
1317.93;  135.500;   65.750;16838.250; 2.38105
1321.94;  133.500;   46.750;16825.250; 2.28648
1325.95;  136.500;   64.750;16797.250; 2.36774
1329.96;  140.500;   63.750;16802.250; 2.33864
1333.96;  127.500;   52.750;16773.250; 2.34964
1337.96;  115.500;   63.750;16776.250; 2.50913
1341.96;  112.500;   46.750;16748.250; 2.40486
1345.96;  123.500;   59.750;16622.250; 2.41465
1349.95;  111.500;   42.750;16410.250; 2.37671
1353.95;  105.500;   67.750;16154.250; 2.62954
1357.94;  109.500;   50.750;15843.250; 2.42944
1361.92;  107.500;   50.750;15571.250; 2.43694
1365.91;  107.500;   46.750;15308.250; 2.40005
1369.89;   93.500;   50.750;15042.250; 2.54491
1373.87;   90.500;   48.750;14460.250; 2.53805
1377.85;   90.500;   60.750;13607.250; 2.65834
1381.82;   63.500;   48.750;12795.250; 2.93660
1385.80;   87.500;   50.750;12441.250; 2.52783
1389.77;   70.500;   54.750;12376.250; 2.89338
1393.74;   70.500;   63.750;12523.250; 3.26620
1397.70;   76.500;   57.750;12861.250; 2.83433
1401.66;   53.500;   57.750;13177.250; 5.00000
1405.62;   51.500;   34.750;13448.250; 2.90353
1409.58;   62.500;   50.750;13653.250; 3.06358
1413.54;   54.500;   50.750;13787.250; 3.56384
1417.49;   45.500;   27.750;13838.250; 2.89101
1421.44;   72.500;   63.750;13894.250; 3.19883
1425.39;   41.500;   54.750;13879.250; 5.00000
1429.33;   62.500;   64.750;13864.250; 5.00000
1433.27;   62.500;   54.750;13809.250; 3.24914
1437.21;   62.500;   48.750;13776.250; 2.99929
1441.15;   63.500;   52.750;13748.250; 3.10517
1445.09;   64.500;   60.750;13691.250; 3.56048
1449.02;   70.500;   57.750;13611.250; 3.02654
1452.95;   56.500;   52.750;13536.250; 3.55577
1456.87;   58.500;   53.750;13439.250; 3.44994
1460.80;   47.500;   43.750;13345.250; 3.54987
1464.72;   67.500;   59.750;13253.250; 3.23106
1468.64;   52.500;   43.750;13131.250; 3.17485
1472.55;   55.500;   63.750;13051.250; 5.00000
1476.47;   50.500;   43.750;12969.250; 3.28214
1480.38;   51.500;   38.750;12870.250; 3.00277
1484.28;   65.500;   54.750;12750.250; 3.07224
1488.19;   49.500;   50.750;12663.250; 5.00000
1492.09;   43.500;   28.750;12533.250; 2.92827
1495.99;   48.500;   58.750;12434.250; 5.00000
1499.89;   61.500;   46.750;12320.250; 2.92018
1503.78;   56.500;   48.750;12228.250; 3.19633
1507.67;   60.500;   52.750;12113.250; 3.19206
1511.56;   37.500;   33.750;11982.250; 3.50328
1515.44;   57.500;   50.750;11884.250; 3.24381
1519.33;   56.500;   48.750;11757.250; 3.17920
1523.21;   53.500;   35.750;11649.250; 2.81576
1527.08;   51.500;   57.750;11506.250; 5.00000
1530.96;   52.500;   39.750;11368.250; 2.94866
1534.83;   78.500;   52.750;11249.250; 2.63831
1538.70;   57.500;   57.750;11082.250; 5.00000
1542.56;   56.500;   28.750;10958.250; 2.59534
1546.42;   59.500;   39.750;10836.250; 2.73772
1550.28;   49.500;   58.750;10683.250; 5.00000
1554.14;   60.500;   39.750;10510.250; 2.70295
1557.99;   54.500;   41.750;10388.250; 2.90928
1561.84;   59.500;   33.750;10234.250; 2.59784
1565.69;   53.500;   40.750;10095.250; 2.89685
1569.54;   56.500;   24.750; 9939.250; 2.49453
1573.38;   53.500;   40.750; 9804.250; 2.88410
1577.22;   50.500;   31.750; 9649.250; 2.71006
1581.05;   67.500;   49.750; 9522.250; 2.72727
1584.89;   54.500;   45.750; 9369.250; 3.02757
1588.72;   61.500;   41.750; 9215.250; 2.66697
1592.54;   58.500;   35.750; 9061.250; 2.59849
1596.37;   42.500;   22.750; 8908.250; 2.65311
1600.19;   55.500;   43.750; 8774.250; 2.87100
1604.01;   46.500;   33.750; 8610.250; 2.82780
1607.82;   58.500;   31.750; 8473.250; 2.49910
1611.63;   40.500;   22.750; 8316.250; 2.66954
1615.44;   66.500;   26.750; 8167.250; 2.31131
1619.25;   57.500;   34.750; 7998.250; 2.54412
1623.05;   56.500;   13.750; 7822.250; 2.26163
1626.85;   58.500;   26.750; 7668.250; 2.38143
1630.64;   63.500;   42.750; 7511.250; 2.55622
1634.44;   62.500;   26.750; 7307.250; 2.30889
1638.23;   54.500;   18.750; 7114.250; 2.29771
1642.01;   43.500;   39.750; 6938.250; 3.26472
1645.80;   44.500;   42.750; 6743.250; 3.58307
1649.58;   55.500;   38.750; 6531.250; 2.58840
1653.35;   64.500;   44.750; 6309.250; 2.50132
1657.13;   56.500;   36.750; 6064.250; 2.48457
1660.90;   41.500;   34.750; 5808.250; 2.93214
1664.67;   29.500;   28.750; 5491.250; 3.86233
1668.43;   73.500;   24.750; 5119.250; 2.01913
1672.19;   37.500;   35.750; 4656.250; 3.42165
1675.95;   55.500;   31.750; 4113.250; 2.23516
1679.70;   50.500;   46.750; 3563.250; 2.97208
1683.46;   44.500;   23.750; 3047.250; 2.16349
1687.20;   58.500;   39.750; 2617.250; 2.13820
1690.95;   50.500;   36.750; 2243.250; 2.20540
1694.69;   49.500;   56.750; 1964.250; 5.00000
1698.43;   42.500;   22.750; 1699.250; 1.92884
1702.16;   53.500;   44.750; 1533.250; 2.23074
1705.89;   38.500;   30.750; 1372.250; 2.23829
1709.62;   42.500;   25.750; 1277.250; 1.87342
1713.35;   44.500;   17.750; 1187.250; 1.64068
1717.07;   40.500;   42.750; 1123.250; 5.00000
1720.79;   54.500;   41.750; 1064.250; 1.90415
1724.50;   42.500;   44.750; 1019.250; 5.00000
1728.21;   48.500;   29.750;  974.250; 1.70220
1731.92;   31.500;   25.750;  931.250; 2.19722
1735.63;   33.500;   34.750;  925.250; 5.00000
1739.33;   34.500;   23.750;  909.250; 1.91578
1743.02;   40.500;   21.750;  865.250; 1.65308
1746.72;   27.500;   33.750;  872.250; 5.00000
1750.41;   55.500;   37.750;  865.250; 1.66857
1754.10;   42.500;   44.750;  846.250; 5.00000

