
Integration time [ms]:   3.780
Averaging Nr. [scans]: 1
Smoothing Nr. [pixels]: 0
Data measured with spectrometer [name]: 1911294U1
Wave   ;Sample   ;Dark     ;Reference;Absorbance
[nm]   ;[counts] ;[counts] ;[counts] ;[A.U]

 860.61;  145.250;   67.750;  833.250; 0.99464
 864.82;  182.250;   49.750;  998.250; 0.85482
 869.02;  200.250;   59.750; 1169.250; 0.89745
 873.23;  220.250;   54.750; 1288.250; 0.87234
 877.43;  221.250;   53.750; 1415.250; 0.91000
 881.63;  257.250;   54.750; 1540.250; 0.86545
 885.83;  274.250;   49.750; 1684.250; 0.86217
 890.03;  277.250;   28.750; 1796.250; 0.85203
 894.23;  299.250;   40.750; 1929.250; 0.86366
 898.42;  311.250;   37.750; 2071.250; 0.87129
 902.62;  343.250;   56.750; 2213.250; 0.87662
 906.81;  364.250;   35.750; 2337.250; 0.84548
 911.00;  375.250;   53.750; 2523.250; 0.88543
 915.19;  404.250;   45.750; 2712.250; 0.87145
 919.38;  436.250;   47.750; 2963.250; 0.87532
 923.57;  490.250;   53.750; 3292.250; 0.87036
 927.76;  553.250;   40.750; 3728.250; 0.85704
 931.94;  594.250;   39.750; 4163.250; 0.87136
 936.13;  663.250;   53.750; 4579.250; 0.87069
 940.31;  677.250;   50.750; 4873.250; 0.88635
 944.49;  738.250;   63.750; 5167.250; 0.87889
 948.67;  759.250;   49.750; 5411.250; 0.87833
 952.85;  790.250;   50.750; 5679.250; 0.88145
 957.03;  820.250;   47.750; 5965.250; 0.88424
 961.21;  853.250;   58.750; 6236.250; 0.89072
 965.38;  884.250;   44.750; 6471.250; 0.88395
 969.55;  890.250;   37.750; 6719.250; 0.89418
 973.73;  944.250;   56.750; 6971.250; 0.89159
 977.90;  967.250;   42.750; 7222.250; 0.89019
 982.06; 1009.250;   44.750; 7469.250; 0.88636
 986.23; 1023.250;   51.750; 7739.250; 0.89834
 990.40; 1080.250;   61.750; 7985.250; 0.89096
 994.56; 1099.250;   65.750; 8243.250; 0.89831
 998.72; 1138.250;   58.750; 8450.250; 0.89062
1002.88; 1173.250;   57.750; 8670.250; 0.88766
1007.04; 1174.250;   52.750; 8879.250; 0.89599
1011.20; 1217.250;   49.750; 9068.250; 0.88788
1015.36; 1232.250;   45.750; 9257.250; 0.89006
1019.51; 1256.250;   60.750; 9402.250; 0.89287
1023.67; 1299.250;   69.750; 9574.250; 0.88820
1027.82; 1308.250;   61.750; 9729.250; 0.88962
1031.97; 1309.250;   55.750; 9851.250; 0.89290
1036.12; 1353.250;   49.750;10022.250; 0.88369
1040.27; 1369.250;   61.750;10174.250; 0.88842
1044.41; 1406.250;   73.750;10320.250; 0.88591
1048.56; 1415.250;   53.750;10468.250; 0.88362
1052.70; 1439.250;   58.750;10629.250; 0.88406
1056.84; 1455.250;   47.750;10798.250; 0.88298
1060.98; 1479.250;   67.750;10996.250; 0.88888
1065.11; 1512.250;   63.750;11181.250; 0.88509
1069.25; 1530.250;   63.750;11391.250; 0.88785
1073.38; 1570.250;   56.750;11632.250; 0.88356
1077.52; 1614.250;   70.750;11862.250; 0.88306
1081.65; 1618.250;   62.750;12105.250; 0.88885
1085.77; 1659.250;   60.750;12352.250; 0.88589
1089.90; 1680.250;   56.750;12603.250; 0.88807
1094.03; 1724.250;   65.750;12857.250; 0.88721
1098.15; 1768.250;   68.750;13146.250; 0.88620
1102.27; 1778.250;   66.750;13436.250; 0.89274
1106.39; 1840.250;   69.750;13733.250; 0.88747
1110.51; 1875.250;   69.750;14055.250; 0.88908
1114.63; 1895.250;   49.750;14464.250; 0.89269
1118.74; 1977.250;   73.750;14874.250; 0.89072
1122.85; 1996.250;   70.750;15167.250; 0.89433
1126.96; 2007.250;   61.750;15350.250; 0.89533
1131.07; 2008.250;   57.750;15457.250; 0.89736
1135.18; 2006.250;   63.750;15545.250; 0.90145
1139.29; 1979.250;   45.750;15604.250; 0.90562
1143.39; 1963.250;   62.750;15613.250; 0.91288
1147.49; 1936.250;   71.750;15592.250; 0.92034
1151.59; 1909.250;   71.750;15618.250; 0.92741
1155.69; 1886.250;   64.750;15618.250; 0.93140
1159.78; 1884.250;   61.750;15619.250; 0.93127
1163.88; 1876.250;   66.750;15654.250; 0.93522
1167.97; 1867.250;   60.750;15657.250; 0.93619
1172.06; 1841.250;   60.750;15668.250; 0.94279
1176.15; 1844.250;   53.750;15670.250; 0.94061
1180.23; 1851.250;   59.750;15679.250; 0.94045
1184.32; 1839.250;   50.750;15690.250; 0.94173
1188.40; 1834.250;   57.750;15712.250; 0.94507
1192.48; 1851.250;   55.750;15725.250; 0.94087
1196.56; 1865.250;   53.750;15754.250; 0.93788
1200.64; 1870.250;   72.750;15783.250; 0.94152
1204.71; 1856.250;   50.750;15806.250; 0.94083
1208.78; 1888.250;   69.750;15849.250; 0.93838
1212.85; 1878.250;   54.750;15854.250; 0.93774
1216.92; 1873.250;   37.750;15840.250; 0.93497
1220.99; 1888.250;   49.750;15897.250; 0.93550
1225.05; 1927.250;   60.750;15920.250; 0.92926
1229.11; 1893.250;   53.750;15924.250; 0.93589
1233.17; 1910.250;   58.750;15926.250; 0.93298
1237.23; 1919.250;   49.750;15943.250; 0.92949
1241.29; 1931.250;   51.750;15960.250; 0.92759
1245.34; 1948.250;   79.750;16029.250; 0.93125
1249.39; 1945.250;   55.750;16081.250; 0.92846
1253.44; 1964.250;   36.750;16122.250; 0.92144
1257.49; 1980.250;   73.750;16225.250; 0.92798
1261.53; 1980.250;   40.750;16273.250; 0.92270
1265.58; 1981.250;   46.750;16338.250; 0.92539
1269.62; 1981.250;   46.750;16412.250; 0.92736
1273.65; 1995.250;   55.750;16472.250; 0.92759
1277.69; 2015.250;   53.750;16552.250; 0.92486
1281.72; 2029.250;   65.750;16612.250; 0.92568
1285.76; 2015.250;   66.750;16662.250; 0.93029
1289.79; 2021.250;   56.750;16697.250; 0.92791
1293.81; 2010.250;   44.750;16713.250; 0.92842
1297.84; 2008.250;   49.750;16765.250; 0.93120
1301.86; 2005.250;   43.750;16807.250; 0.93178
1305.88; 1988.250;   58.750;16824.250; 0.93897
1309.90; 1989.250;   49.750;16842.250; 0.93743
1313.92; 1960.250;   55.750;16828.250; 0.94482
1317.93; 1953.250;   65.750;16838.250; 0.94871
1321.94; 1923.250;   46.750;16825.250; 0.95140
1325.95; 1889.250;   64.750;16797.250; 0.96242
1329.96; 1863.250;   63.750;16802.250; 0.96856
1333.96; 1839.250;   52.750;16773.250; 0.97125
1337.96; 1799.250;   63.750;16776.250; 0.98362
1341.96; 1762.250;   46.750;16748.250; 0.98836
1345.96; 1733.250;   59.750;16622.250; 0.99550
1349.95; 1668.250;   42.750;16410.250; 1.00300
1353.95; 1644.250;   67.750;16154.250; 1.00877
1357.94; 1572.250;   50.750;15843.250; 1.01618
1361.92; 1526.250;   50.750;15571.250; 1.02197
1365.91; 1467.250;   46.750;15308.250; 1.03116
1369.89; 1405.250;   50.750;15042.250; 1.04407
1373.87; 1289.250;   48.750;14460.250; 1.06511
1377.85; 1183.250;   60.750;13607.250; 1.08164
1381.82; 1030.250;   48.750;12795.250; 1.11350
1385.80;  918.250;   50.750;12441.250; 1.15482
1389.77;  809.250;   54.750;12376.250; 1.21300
1393.74;  707.250;   63.750;12523.250; 1.28695
1397.70;  612.250;   57.750;12861.250; 1.36343
1401.66;  540.250;   57.750;13177.250; 1.43442
1405.62;  452.250;   34.750;13448.250; 1.50689
1409.58;  415.250;   50.750;13653.250; 1.57192
1413.54;  380.250;   50.750;13787.250; 1.62002
1417.49;  303.250;   27.750;13838.250; 1.70009
1421.44;  317.250;   63.750;13894.250; 1.73686
1425.39;  287.250;   54.750;13879.250; 1.77423
1429.33;  276.250;   64.750;13864.250; 1.81455
1433.27;  279.250;   54.750;13809.250; 1.78723
1437.21;  250.250;   48.750;13776.250; 1.83332
1441.15;  271.250;   52.750;13748.250; 1.79713
1445.09;  264.250;   60.750;13691.250; 1.82595
1449.02;  255.250;   57.750;13611.250; 1.83648
1452.95;  250.250;   52.750;13536.250; 1.83424
1456.87;  252.250;   53.750;13439.250; 1.82887
1460.80;  242.250;   43.750;13345.250; 1.82614
1464.72;  253.250;   59.750;13253.250; 1.83368
1468.64;  246.250;   43.750;13131.250; 1.81043
1472.55;  266.250;   63.750;13051.250; 1.80710
1476.47;  271.250;   43.750;12969.250; 1.75447
1480.38;  292.250;   38.750;12870.250; 1.70430
1484.28;  299.250;   54.750;12750.250; 1.71537
1488.19;  312.250;   50.750;12663.250; 1.68333
1492.09;  318.250;   28.750;12533.250; 1.63542
1495.99;  338.250;   58.750;12434.250; 1.64618
1499.89;  365.250;   46.750;12320.250; 1.58586
1503.78;  386.250;   48.750;12228.250; 1.55736
1507.67;  391.250;   52.750;12113.250; 1.55181
1511.56;  406.250;   33.750;11982.250; 1.50619
1515.44;  430.250;   50.750;11884.250; 1.49390
1519.33;  451.250;   48.750;11757.250; 1.46374
1523.21;  464.250;   35.750;11649.250; 1.43301
1527.08;  490.250;   57.750;11506.250; 1.42276
1530.96;  498.250;   39.750;11368.250; 1.39283
1534.83;  536.250;   52.750;11249.250; 1.36469
1538.70;  544.250;   57.750;11082.250; 1.35528
1542.56;  541.250;   28.750;10958.250; 1.32891
1546.42;  564.250;   39.750;10836.250; 1.31354
1550.28;  578.250;   58.750;10683.250; 1.31072
1554.14;  579.250;   39.750;10510.250; 1.28798
1557.99;  597.250;   41.750;10388.250; 1.27011
1561.84;  603.250;   33.750;10234.250; 1.25313
1565.69;  615.250;   40.750;10095.250; 1.24307
1569.54;  608.250;   24.750; 9939.250; 1.23023
1573.38;  626.250;   40.750; 9804.250; 1.22208
1577.22;  619.250;   31.750; 9649.250; 1.21405
1581.05;  632.250;   49.750; 9522.250; 1.21117
1584.89;  648.250;   45.750; 9369.250; 1.18962
1588.72;  633.250;   41.750; 9215.250; 1.19058
1592.54;  628.250;   35.750; 9061.250; 1.18278
1596.37;  642.250;   22.750; 8908.250; 1.15664
1600.19;  653.250;   43.750; 8774.250; 1.15607
1604.01;  629.250;   33.750; 8610.250; 1.15843
1607.82;  643.250;   31.750; 8473.250; 1.14002
1611.63;  613.250;   22.750; 8316.250; 1.14752
1615.44;  656.250;   26.750; 8167.250; 1.11166
1619.25;  621.250;   34.750; 7998.250; 1.13284
1623.05;  611.250;   13.750; 7822.250; 1.11623
1626.85;  618.250;   26.750; 7668.250; 1.11122
1630.64;  629.250;   42.750; 7511.250; 1.10497
1634.44;  611.250;   26.750; 7307.250; 1.09538
1638.23;  591.250;   18.750; 7114.250; 1.09321
1642.01;  588.250;   39.750; 6938.250; 1.09958
1645.80;  580.250;   42.750; 6743.250; 1.09573
1649.58;  565.250;   38.750; 6531.250; 1.09101
1653.35;  556.250;   44.750; 6309.250; 1.08804
1657.13;  524.250;   36.750; 6064.250; 1.09216
1660.90;  505.250;   34.750; 5808.250; 1.08888
1664.67;  469.250;   28.750; 5491.250; 1.09345
1668.43;  463.250;   24.750; 5119.250; 1.06513
1672.19;  427.250;   35.750; 4656.250; 1.07196
1675.95;  377.250;   31.750; 4113.250; 1.07237
1679.70;  327.250;   46.750; 3563.250; 1.09818
1683.46;  285.250;   23.750; 3047.250; 1.06304
1687.20;  268.250;   39.750; 2617.250; 1.05231
1690.95;  232.250;   36.750; 2243.250; 1.05256
1694.69;  213.250;   56.750; 1964.250; 1.08595
1698.43;  192.250;   22.750; 1699.250; 0.99523
1702.16;  187.250;   44.750; 1533.250; 1.01893
1705.89;  167.250;   30.750; 1372.250; 0.99246
1709.62;  159.250;   25.750; 1277.250; 0.97195
1713.35;  149.250;   17.750; 1187.250; 0.94907
1717.07;  145.250;   42.750; 1123.250; 1.02290
1720.79;  144.250;   41.750; 1064.250; 0.99894
1724.50;  148.250;   44.750; 1019.250; 0.97384
1728.21;  142.250;   29.750;  974.250; 0.92405
1731.92;  127.250;   25.750;  931.250; 0.95042
1735.63;  129.250;   34.750;  925.250; 0.97420
1739.33;  149.250;   23.750;  909.250; 0.84854
1743.02;  137.250;   21.750;  865.250; 0.86350
1746.72;  132.250;   33.750;  872.250; 0.93007
1750.41;  142.250;   37.750;  865.250; 0.89865
1754.10;  135.250;   44.750;  846.250; 0.94725

