
Integration time [ms]:   3.780
Averaging Nr. [scans]: 1
Smoothing Nr. [pixels]: 0
Data measured with spectrometer [name]: 1911294U1
Wave   ;Sample   ;Dark     ;Reference;Absorbance
[nm]   ;[counts] ;[counts] ;[counts] ;[A.U]

 860.61;  108.500;   67.750;  833.250; 1.27382
 864.82;  116.500;   49.750;  998.250; 1.15259
 869.02;  127.500;   59.750; 1169.250; 1.21422
 873.23;  142.500;   54.750; 1288.250; 1.14789
 877.43;  147.500;   53.750; 1415.250; 1.16205
 881.63;  149.500;   54.750; 1540.250; 1.19529
 885.83;  159.500;   49.750; 1684.250; 1.17298
 890.03;  159.500;   28.750; 1796.250; 1.13092
 894.23;  164.500;   40.750; 1929.250; 1.18357
 898.42;  173.500;   37.750; 2071.250; 1.17550
 902.62;  192.500;   56.750; 2213.250; 1.20101
 906.81;  189.500;   35.750; 2337.250; 1.17520
 911.00;  203.500;   53.750; 2523.250; 1.21724
 915.19;  223.500;   45.750; 2712.250; 1.17613
 919.38;  242.500;   47.750; 2963.250; 1.17524
 923.57;  267.500;   53.750; 3292.250; 1.18044
 927.76;  280.500;   40.750; 3728.250; 1.18697
 931.94;  301.500;   39.750; 4163.250; 1.19738
 936.13;  335.500;   53.750; 4579.250; 1.20580
 940.31;  340.500;   50.750; 4873.250; 1.22125
 944.49;  381.500;   63.750; 5167.250; 1.20578
 948.67;  391.500;   49.750; 5411.250; 1.19558
 952.85;  390.500;   50.750; 5679.250; 1.21923
 957.03;  395.500;   47.750; 5965.250; 1.23087
 961.21;  441.500;   58.750; 6236.250; 1.20790
 965.38;  424.500;   44.750; 6471.250; 1.22848
 969.55;  433.500;   37.750; 6719.250; 1.22745
 973.73;  464.500;   56.750; 6971.250; 1.22937
 977.90;  475.500;   42.750; 7222.250; 1.21986
 982.06;  490.500;   44.750; 7469.250; 1.22158
 986.23;  479.500;   51.750; 7739.250; 1.25460
 990.40;  520.500;   61.750; 7985.250; 1.23734
 994.56;  525.500;   65.750; 8243.250; 1.25010
 998.72;  539.500;   58.750; 8450.250; 1.24192
1002.88;  556.500;   57.750; 8670.250; 1.23725
1007.04;  565.500;   52.750; 8879.250; 1.23588
1011.20;  593.500;   49.750; 9068.250; 1.21974
1015.36;  590.500;   45.750; 9257.250; 1.22813
1019.51;  597.500;   60.750; 9402.250; 1.24064
1023.67;  617.500;   69.750; 9574.250; 1.23935
1027.82;  626.500;   61.750; 9729.250; 1.23346
1031.97;  622.500;   55.750; 9851.250; 1.23764
1036.12;  650.500;   49.750;10022.250; 1.22011
1040.27;  654.500;   61.750;10174.250; 1.23199
1044.41;  668.500;   73.750;10320.250; 1.23624
1048.56;  676.500;   53.750;10468.250; 1.22332
1052.70;  700.500;   58.750;10629.250; 1.21673
1056.84;  692.500;   47.750;10798.250; 1.22204
1060.98;  704.500;   67.750;10996.250; 1.23459
1065.11;  707.500;   63.750;11181.250; 1.23729
1069.25;  725.500;   63.750;11391.250; 1.23344
1073.38;  733.500;   56.750;11632.250; 1.23311
1077.52;  753.500;   70.750;11862.250; 1.23731
1081.65;  761.500;   62.750;12105.250; 1.23639
1085.77;  777.500;   60.750;12352.250; 1.23424
1089.90;  778.500;   56.750;12603.250; 1.24014
1094.03;  798.500;   65.750;12857.250; 1.24197
1098.15;  818.500;   68.750;13146.250; 1.24161
1102.27;  824.500;   66.750;13436.250; 1.24659
1106.39;  844.500;   69.750;13733.250; 1.24640
1110.51;  862.500;   69.750;14055.250; 1.24654
1114.63;  866.500;   49.750;14464.250; 1.24671
1118.74;  902.500;   73.750;14874.250; 1.25185
1122.85;  909.500;   70.750;15167.250; 1.25524
1126.96;  913.500;   61.750;15350.250; 1.25405
1131.07;  902.500;   57.750;15457.250; 1.26078
1135.18;  900.500;   63.750;15545.250; 1.26722
1139.29;  860.500;   45.750;15604.250; 1.28094
1143.39;  868.500;   62.750;15613.250; 1.28554
1147.49;  822.500;   71.750;15592.250; 1.31541
1151.59;  822.500;   71.750;15618.250; 1.31614
1155.69;  809.500;   64.750;15618.250; 1.31982
1159.78;  783.500;   61.750;15619.250; 1.33355
1163.88;  783.500;   66.750;15654.250; 1.33741
1167.97;  772.500;   60.750;15657.250; 1.34070
1172.06;  754.500;   60.750;15668.250; 1.35213
1176.15;  758.500;   53.750;15670.250; 1.34555
1180.23;  757.500;   59.750;15679.250; 1.34997
1184.32;  733.500;   50.750;15690.250; 1.35996
1188.40;  753.500;   57.750;15712.250; 1.35219
1192.48;  740.500;   55.750;15725.250; 1.35952
1196.56;  740.500;   53.750;15754.250; 1.35911
1200.64;  762.500;   72.750;15783.250; 1.35750
1204.71;  752.500;   50.750;15806.250; 1.35125
1208.78;  764.500;   69.750;15849.250; 1.35626
1212.85;  757.500;   54.750;15854.250; 1.35184
1216.92;  749.500;   37.750;15840.250; 1.34640
1220.99;  766.500;   49.750;15897.250; 1.34459
1225.05;  775.500;   60.750;15920.250; 1.34614
1229.11;  771.500;   53.750;15924.250; 1.34462
1233.17;  768.500;   58.750;15926.250; 1.34940
1237.23;  768.500;   49.750;15943.250; 1.34464
1241.29;  780.500;   51.750;15960.250; 1.33905
1245.34;  791.500;   79.750;16029.250; 1.35042
1249.39;  779.500;   55.750;16081.250; 1.34522
1253.44;  783.500;   36.750;16122.250; 1.33326
1257.49;  803.500;   73.750;16225.250; 1.34504
1261.53;  799.500;   40.750;16273.250; 1.33029
1265.58;  795.500;   46.750;16338.250; 1.33762
1269.62;  791.500;   46.750;16412.250; 1.34192
1273.65;  797.500;   55.750;16472.250; 1.34502
1277.69;  801.500;   53.750;16552.250; 1.34369
1281.72;  815.500;   65.750;16612.250; 1.34379
1285.76;  787.500;   66.750;16662.250; 1.36221
1289.79;  793.500;   56.750;16697.250; 1.35385
1293.81;  786.500;   44.750;16713.250; 1.35164
1297.84;  778.500;   49.750;16765.250; 1.36054
1301.86;  781.500;   43.750;16807.250; 1.35646
1305.88;  779.500;   58.750;16824.250; 1.36663
1309.90;  764.500;   49.750;16842.250; 1.37096
1313.92;  736.500;   55.750;16828.250; 1.39161
1317.93;  752.500;   65.750;16838.250; 1.38780
1321.94;  724.500;   46.750;16825.250; 1.39368
1325.95;  709.500;   64.750;16797.250; 1.41417
1329.96;  713.500;   63.750;16802.250; 1.41097
1333.96;  677.500;   52.750;16773.250; 1.42754
1337.96;  665.500;   63.750;16776.250; 1.44363
1341.96;  629.500;   46.750;16748.250; 1.45727
1345.96;  630.500;   59.750;16622.250; 1.46268
1349.95;  590.500;   42.750;16410.250; 1.47540
1353.95;  578.500;   67.750;16154.250; 1.49825
1357.94;  550.500;   50.750;15843.250; 1.49970
1361.92;  544.500;   50.750;15571.250; 1.49740
1365.91;  504.500;   46.750;15308.250; 1.52297
1369.89;  486.500;   50.750;15042.250; 1.53661
1373.87;  448.500;   48.750;14460.250; 1.55692
1377.85;  430.500;   60.750;13607.250; 1.56392
1381.82;  355.500;   48.750;12795.250; 1.61861
1385.80;  319.500;   50.750;12441.250; 1.66374
1389.77;  274.500;   54.750;12376.250; 1.74873
1393.74;  259.500;   63.750;12523.250; 1.80380
1397.70;  232.500;   57.750;12861.250; 1.86491
1401.66;  203.500;   57.750;13177.250; 1.95431
1405.62;  165.500;   34.750;13448.250; 2.01110
1409.58;  166.500;   50.750;13653.250; 2.07010
1413.54;  143.500;   50.750;13787.250; 2.17056
1417.49;  127.500;   27.750;13838.250; 2.14130
1421.44;  127.500;   63.750;13894.250; 2.33636
1425.39;  122.500;   54.750;13879.250; 2.30974
1429.33;  134.500;   64.750;13864.250; 2.29632
1433.27;  125.500;   54.750;13809.250; 2.28872
1437.21;  105.500;   48.750;13776.250; 2.38363
1441.15;  117.500;   52.750;13748.250; 2.32534
1445.09;  122.500;   60.750;13691.250; 2.34387
1449.02;  104.500;   57.750;13611.250; 2.46227
1452.95;  108.500;   52.750;13536.250; 2.38356
1456.87;  102.500;   53.750;13439.250; 2.43866
1460.80;  106.500;   43.750;13345.250; 2.32629
1464.72;  112.500;   59.750;13253.250; 2.39814
1468.64;   91.500;   43.750;13131.250; 2.43788
1472.55;  109.500;   63.750;13051.250; 2.45313
1476.47;  114.500;   43.750;12969.250; 2.26172
1480.38;  118.500;   38.750;12870.250; 2.20655
1484.28;  117.500;   54.750;12750.250; 2.30604
1488.19;  115.500;   50.750;12663.250; 2.28956
1492.09;  104.500;   28.750;12533.250; 2.21768
1495.99;  128.500;   58.750;12434.250; 2.24902
1499.89;  114.500;   46.750;12320.250; 2.25806
1503.78;  120.500;   48.750;12228.250; 2.22981
1507.67;  143.500;   52.750;12113.250; 2.12352
1511.56;  123.500;   33.750;11982.250; 2.12428
1515.44;  127.500;   50.750;11884.250; 2.18803
1519.33;  140.500;   48.750;11757.250; 2.10590
1523.21;  149.500;   35.750;11649.250; 2.00901
1527.08;  161.500;   57.750;11506.250; 2.04276
1530.96;  149.500;   39.750;11368.250; 2.01377
1534.83;  163.500;   52.750;11249.250; 2.00474
1538.70;  139.500;   57.750;11082.250; 2.12987
1542.56;  154.500;   28.750;10958.250; 1.93909
1546.42;  160.500;   39.750;10836.250; 1.95140
1550.28;  170.500;   58.750;10683.250; 1.97806
1554.14;  155.500;   39.750;10510.250; 1.95645
1557.99;  157.500;   41.750;10388.250; 1.95127
1561.84;  160.500;   33.750;10234.250; 1.90567
1565.69;  195.500;   40.750;10095.250; 1.81273
1569.54;  154.500;   24.750; 9939.250; 1.88316
1573.38;  167.500;   40.750; 9804.250; 1.88666
1577.22;  172.500;   31.750; 9649.250; 1.83461
1581.05;  171.500;   49.750; 9522.250; 1.89100
1584.89;  187.500;   45.750; 9369.250; 1.81806
1588.72;  166.500;   41.750; 9215.250; 1.86649
1592.54;  181.500;   35.750; 9061.250; 1.79186
1596.37;  183.500;   22.750; 8908.250; 1.74253
1600.19;  181.500;   43.750; 8774.250; 1.80195
1604.01;  169.500;   33.750; 8610.250; 1.80057
1607.82;  168.500;   31.750; 8473.250; 1.79049
1611.63;  160.500;   22.750; 8316.250; 1.77965
1615.44;  187.500;   26.750; 8167.250; 1.70450
1619.25;  176.500;   34.750; 7998.250; 1.74958
1623.05;  152.500;   13.750; 7822.250; 1.75033
1626.85;  177.500;   26.750; 7668.250; 1.70492
1630.64;  177.500;   42.750; 7511.250; 1.74370
1634.44;  163.500;   26.750; 7307.250; 1.72623
1638.23;  167.500;   18.750; 7114.250; 1.67853
1642.01;  159.500;   39.750; 6938.250; 1.76048
1645.80;  160.500;   42.750; 6743.250; 1.75515
1649.58;  174.500;   38.750; 6531.250; 1.67967
1653.35;  169.500;   44.750; 6309.250; 1.70085
1657.13;  157.500;   36.750; 6064.250; 1.69825
1660.90;  149.500;   34.750; 5808.250; 1.70169
1664.67;  147.500;   28.750; 5491.250; 1.66276
1668.43;  142.500;   24.750; 5119.250; 1.63614
1672.19;  128.500;   35.750; 4656.250; 1.69738
1675.95;  104.500;   31.750; 4113.250; 1.74899
1679.70;  110.500;   46.750; 3563.250; 1.74163
1683.46;  101.500;   23.750; 3047.250; 1.58981
1687.20;   98.500;   39.750; 2617.250; 1.64219
1690.95;   85.500;   36.750; 2243.250; 1.65573
1694.69;   99.500;   56.750; 1964.250; 1.64953
1698.43;   92.500;   22.750; 1699.250; 1.38086
1702.16;   82.500;   44.750; 1533.250; 1.59583
1705.89;   78.500;   30.750; 1372.250; 1.44862
1709.62;   80.500;   25.750; 1277.250; 1.35905
1713.35;   75.500;   17.750; 1187.250; 1.30645
1717.07;   93.500;   42.750; 1123.250; 1.32819
1720.79;   92.500;   41.750; 1064.250; 1.30423
1724.50;   96.500;   44.750; 1019.250; 1.27487
1728.21;   77.500;   29.750;  974.250; 1.29623
1731.92;   83.500;   25.750;  931.250; 1.19534
1735.63;   84.500;   34.750;  925.250; 1.25284
1739.33;   95.500;   23.750;  909.250; 1.09137
1743.02;   77.500;   21.750;  865.250; 1.17984
1746.72;   88.500;   33.750;  872.250; 1.18512
1750.41;   85.500;   37.750;  865.250; 1.23879
1754.10;   91.500;   44.750;  846.250; 1.23412

