
Integration time [ms]:   3.780
Averaging Nr. [scans]: 1
Smoothing Nr. [pixels]: 0
Data measured with spectrometer [name]: 1911294U1
Wave   ;Sample   ;Dark     ;Reference;Absorbance
[nm]   ;[counts] ;[counts] ;[counts] ;[A.U]

 860.61;  177.500;   67.750;  833.250; 0.84354
 864.82;  182.500;   49.750;  998.250; 0.85400
 869.02;  217.500;   59.750; 1169.250; 0.84716
 873.23;  235.500;   54.750; 1288.250; 0.83406
 877.43;  249.500;   53.750; 1415.250; 0.84232
 881.63;  274.500;   54.750; 1540.250; 0.82994
 885.83;  288.500;   49.750; 1684.250; 0.83544
 890.03;  298.500;   28.750; 1796.250; 0.81640
 894.23;  327.500;   40.750; 1929.250; 0.81861
 898.42;  336.500;   37.750; 2071.250; 0.83294
 902.62;  364.500;   56.750; 2213.250; 0.84555
 906.81;  377.500;   35.750; 2337.250; 0.82830
 911.00;  406.500;   53.750; 2523.250; 0.84514
 915.19;  421.500;   45.750; 2712.250; 0.85104
 919.38;  485.500;   47.750; 2963.250; 0.82349
 923.57;  531.500;   53.750; 3292.250; 0.83114
 927.76;  582.500;   40.750; 3728.250; 0.83293
 931.94;  658.500;   39.750; 4163.250; 0.82375
 936.13;  702.500;   53.750; 4579.250; 0.84359
 940.31;  750.500;   50.750; 4873.250; 0.83833
 944.49;  785.500;   63.750; 5167.250; 0.84948
 948.67;  808.500;   49.750; 5411.250; 0.84919
 952.85;  836.500;   50.750; 5679.250; 0.85511
 957.03;  876.500;   47.750; 5965.250; 0.85371
 961.21;  912.500;   58.750; 6236.250; 0.85948
 965.38;  944.500;   44.750; 6471.250; 0.85385
 969.55;  961.500;   37.750; 6719.250; 0.85932
 973.73; 1025.500;   56.750; 6971.250; 0.85355
 977.90; 1041.500;   42.750; 7222.250; 0.85664
 982.06; 1077.500;   44.750; 7469.250; 0.85667
 986.23; 1103.500;   51.750; 7739.250; 0.86387
 990.40; 1166.500;   61.750; 7985.250; 0.85565
 994.56; 1192.500;   65.750; 8243.250; 0.86079
 998.72; 1220.500;   58.750; 8450.250; 0.85873
1002.88; 1236.500;   57.750; 8670.250; 0.86371
1007.04; 1295.500;   52.750; 8879.250; 0.85140
1011.20; 1302.500;   49.750; 9068.250; 0.85727
1015.36; 1335.500;   45.750; 9257.250; 0.85382
1019.51; 1357.500;   60.750; 9402.250; 0.85756
1023.67; 1393.500;   69.750; 9574.250; 0.85612
1027.82; 1403.500;   61.750; 9729.250; 0.85764
1031.97; 1426.500;   55.750; 9851.250; 0.85407
1036.12; 1445.500;   49.750;10022.250; 0.85400
1040.27; 1468.500;   61.750;10174.250; 0.85664
1044.41; 1488.500;   73.750;10320.250; 0.85990
1048.56; 1499.500;   53.750;10468.250; 0.85755
1052.70; 1534.500;   58.750;10629.250; 0.85508
1056.84; 1546.500;   47.750;10798.250; 0.85570
1060.98; 1575.500;   67.750;10996.250; 0.86023
1065.11; 1623.500;   63.750;11181.250; 0.85295
1069.25; 1643.500;   63.750;11391.250; 0.85555
1073.38; 1666.500;   56.750;11632.250; 0.85678
1077.52; 1720.500;   70.750;11862.250; 0.85415
1081.65; 1745.500;   62.750;12105.250; 0.85470
1085.77; 1751.500;   60.750;12352.250; 0.86153
1089.90; 1793.500;   56.750;12603.250; 0.85879
1094.03; 1848.500;   65.750;12857.250; 0.85583
1098.15; 1861.500;   68.750;13146.250; 0.86300
1102.27; 1892.500;   66.750;13436.250; 0.86467
1106.39; 1945.500;   69.750;13733.250; 0.86239
1110.51; 1988.500;   69.750;14055.250; 0.86266
1114.63; 2033.500;   49.750;14464.250; 0.86131
1118.74; 2078.500;   73.750;14874.250; 0.86822
1122.85; 2125.500;   70.750;15167.250; 0.86612
1126.96; 2130.500;   61.750;15350.250; 0.86866
1131.07; 2137.500;   57.750;15457.250; 0.86950
1135.18; 2132.500;   63.750;15545.250; 0.87411
1139.29; 2096.500;   45.750;15604.250; 0.88006
1143.39; 2088.500;   62.750;15613.250; 0.88516
1147.49; 2044.500;   71.750;15592.250; 0.89583
1151.59; 2046.500;   71.750;15618.250; 0.89612
1155.69; 2015.500;   64.750;15618.250; 0.90163
1159.78; 1991.500;   61.750;15619.250; 0.90644
1163.88; 1987.500;   66.750;15654.250; 0.90931
1167.97; 1953.500;   60.750;15657.250; 0.91593
1172.06; 1980.500;   60.750;15668.250; 0.91009
1176.15; 1959.500;   53.750;15670.250; 0.91352
1180.23; 1967.500;   59.750;15679.250; 0.91315
1184.32; 1939.500;   50.750;15690.250; 0.91805
1188.40; 1960.500;   57.750;15712.250; 0.91526
1192.48; 1963.500;   55.750;15725.250; 0.91453
1196.56; 1943.500;   53.750;15754.250; 0.91951
1200.64; 1959.500;   72.750;15783.250; 0.92048
1204.71; 1959.500;   50.750;15806.250; 0.91668
1208.78; 1969.500;   69.750;15849.250; 0.91940
1212.85; 1979.500;   54.750;15854.250; 0.91427
1216.92; 1961.500;   37.750;15840.250; 0.91458
1220.99; 1989.500;   49.750;15897.250; 0.91221
1225.05; 1995.500;   60.750;15920.250; 0.91366
1229.11; 1980.500;   53.750;15924.250; 0.91577
1233.17; 1999.500;   58.750;15926.250; 0.91254
1237.23; 2006.500;   49.750;15943.250; 0.90968
1241.29; 2000.500;   51.750;15960.250; 0.91187
1245.34; 2017.500;   79.750;16029.250; 0.91545
1249.39; 2025.500;   55.750;16081.250; 0.91040
1253.44; 2023.500;   36.750;16122.250; 0.90829
1257.49; 2044.500;   73.750;16225.250; 0.91358
1261.53; 2049.500;   40.750;16273.250; 0.90746
1265.58; 2062.500;   46.750;16338.250; 0.90752
1269.62; 2056.500;   46.750;16412.250; 0.91079
1273.65; 2061.500;   55.750;16472.250; 0.91300
1277.69; 2073.500;   53.750;16552.250; 0.91215
1281.72; 2082.500;   65.750;16612.250; 0.91405
1285.76; 2082.500;   66.750;16662.250; 0.91555
1289.79; 2065.500;   56.750;16697.250; 0.91824
1293.81; 2058.500;   44.750;16713.250; 0.91789
1297.84; 2060.500;   49.750;16765.250; 0.91976
1301.86; 2050.500;   43.750;16807.250; 0.92187
1305.88; 2044.500;   58.750;16824.250; 0.92649
1309.90; 2046.500;   49.750;16842.250; 0.92479
1313.92; 2010.500;   55.750;16828.250; 0.93351
1317.93; 1995.500;   65.750;16838.250; 0.93910
1321.94; 1972.500;   46.750;16825.250; 0.94015
1325.95; 1931.500;   64.750;16797.250; 0.95247
1329.96; 1906.500;   63.750;16802.250; 0.95825
1333.96; 1880.500;   52.750;16773.250; 0.96133
1337.96; 1845.500;   63.750;16776.250; 0.97219
1341.96; 1821.500;   46.750;16748.250; 0.97362
1345.96; 1783.500;   59.750;16622.250; 0.98265
1349.95; 1734.500;   42.750;16410.250; 0.98565
1353.95; 1683.500;   67.750;16154.250; 0.99809
1357.94; 1622.500;   50.750;15843.250; 1.00207
1361.92; 1574.500;   50.750;15571.250; 1.00799
1365.91; 1513.500;   46.750;15308.250; 1.01724
1369.89; 1456.500;   50.750;15042.250; 1.02794
1373.87; 1365.500;   48.750;14460.250; 1.03921
1377.85; 1242.500;   60.750;13607.250; 1.05930
1381.82; 1098.500;   48.750;12795.250; 1.08431
1385.80;  992.500;   50.750;12441.250; 1.11915
1389.77;  877.500;   54.750;12376.250; 1.17540
1393.74;  784.500;   63.750;12523.250; 1.23772
1397.70;  724.500;   57.750;12861.250; 1.28337
1401.66;  630.500;   57.750;13177.250; 1.35995
1405.62;  561.500;   34.750;13448.250; 1.40594
1409.58;  524.500;   50.750;13653.250; 1.45807
1413.54;  459.500;   50.750;13787.250; 1.52642
1417.49;  411.500;   27.750;13838.250; 1.55616
1421.44;  422.500;   63.750;13894.250; 1.58605
1425.39;  392.500;   54.750;13879.250; 1.61205
1429.33;  377.500;   64.750;13864.250; 1.64467
1433.27;  349.500;   54.750;13809.250; 1.66899
1437.21;  349.500;   48.750;13776.250; 1.65939
1441.15;  356.500;   52.750;13748.250; 1.65406
1445.09;  343.500;   60.750;13691.250; 1.68311
1449.02;  330.500;   57.750;13611.250; 1.69629
1452.95;  332.500;   52.750;13536.250; 1.68303
1456.87;  324.500;   53.750;13439.250; 1.69407
1460.80;  325.500;   43.750;13345.250; 1.67404
1464.72;  329.500;   59.750;13253.250; 1.68940
1468.64;  332.500;   43.750;13131.250; 1.65633
1472.55;  367.500;   63.750;13051.250; 1.63101
1476.47;  369.500;   43.750;12969.250; 1.59856
1480.38;  376.500;   38.750;12870.250; 1.57968
1484.28;  390.500;   54.750;12750.250; 1.57763
1488.19;  401.500;   50.750;12663.250; 1.55580
1492.09;  403.500;   28.750;12533.250; 1.52332
1495.99;  418.500;   58.750;12434.250; 1.53656
1499.89;  427.500;   46.750;12320.250; 1.50833
1503.78;  464.500;   48.750;12228.250; 1.46680
1507.67;  476.500;   52.750;12113.250; 1.45426
1511.56;  477.500;   33.750;11982.250; 1.43018
1515.44;  496.500;   50.750;11884.250; 1.42402
1519.33;  517.500;   48.750;11757.250; 1.39756
1523.21;  531.500;   35.750;11649.250; 1.36970
1527.08;  551.500;   57.750;11506.250; 1.36524
1530.96;  548.500;   39.750;11368.250; 1.34767
1534.83;  577.500;   52.750;11249.250; 1.32913
1538.70;  574.500;   57.750;11082.250; 1.32908
1542.56;  581.500;   28.750;10958.250; 1.29607
1546.42;  589.500;   39.750;10836.250; 1.29312
1550.28;  607.500;   58.750;10683.250; 1.28693
1554.14;  598.500;   39.750;10510.250; 1.27275
1557.99;  628.500;   41.750;10388.250; 1.24634
1561.84;  618.500;   33.750;10234.250; 1.24165
1565.69;  630.500;   40.750;10095.250; 1.23169
1569.54;  631.500;   24.750; 9939.250; 1.21326
1573.38;  634.500;   40.750; 9804.250; 1.21600
1577.22;  645.500;   31.750; 9649.250; 1.19507
1581.05;  646.500;   49.750; 9522.250; 1.20067
1584.89;  644.500;   45.750; 9369.250; 1.19233
1588.72;  637.500;   41.750; 9215.250; 1.18747
1592.54;  640.500;   35.750; 9061.250; 1.17390
1596.37;  636.500;   22.750; 8908.250; 1.16069
1600.19;  634.500;   43.750; 8774.250; 1.16964
1604.01;  619.500;   33.750; 8610.250; 1.16560
1607.82;  632.500;   31.750; 8473.250; 1.14773
1611.63;  609.500;   22.750; 8316.250; 1.15028
1615.44;  623.500;   26.750; 8167.250; 1.13486
1619.25;  616.500;   34.750; 7998.250; 1.13637
1623.05;  591.500;   13.750; 7822.250; 1.13083
1626.85;  607.500;   26.750; 7668.250; 1.11919
1630.64;  590.500;   42.750; 7511.250; 1.13465
1634.44;  571.500;   26.750; 7307.250; 1.12596
1638.23;  557.500;   18.750; 7114.250; 1.11960
1642.01;  567.500;   39.750; 6938.250; 1.11633
1645.80;  555.500;   42.750; 6743.250; 1.11620
1649.58;  558.500;   38.750; 6531.250; 1.09662
1653.35;  529.500;   44.750; 6309.250; 1.11137
1657.13;  486.500;   36.750; 6064.250; 1.12717
1660.90;  509.500;   34.750; 5808.250; 1.08497
1664.67;  463.500;   28.750; 5491.250; 1.09915
1668.43;  452.500;   24.750; 5119.250; 1.07591
1672.19;  398.500;   35.750; 4656.250; 1.10508
1675.95;  356.500;   31.750; 4113.250; 1.09927
1679.70;  306.500;   46.750; 3563.250; 1.13156
1683.46;  285.500;   23.750; 3047.250; 1.06262
1687.20;  265.500;   39.750; 2617.250; 1.05757
1690.95;  230.500;   36.750; 2243.250; 1.05646
1694.69;  209.500;   56.750; 1964.250; 1.09648
1698.43;  194.500;   22.750; 1699.250; 0.98951
1702.16;  186.500;   44.750; 1533.250; 1.02123
1705.89;  156.500;   30.750; 1372.250; 1.02808
1709.62;  150.500;   25.750; 1277.250; 1.00139
1713.35;  160.500;   17.750; 1187.250; 0.91342
1717.07;  158.500;   42.750; 1123.250; 0.97010
1720.79;  144.500;   41.750; 1064.250; 0.99788
1724.50;  147.500;   44.750; 1019.250; 0.97700
1728.21;  142.500;   29.750;  974.250; 0.92309
1731.92;  129.500;   25.750;  931.250; 0.94090
1735.63;  144.500;   34.750;  925.250; 0.90923
1739.33;  147.500;   23.750;  909.250; 0.85464
1743.02;  129.500;   21.750;  865.250; 0.89367
1746.72;  136.500;   33.750;  872.250; 0.91172
1750.41;  148.500;   37.750;  865.250; 0.87342
1754.10;  137.500;   44.750;  846.250; 0.93659

