
Integration time [ms]:   3.780
Averaging Nr. [scans]: 1
Smoothing Nr. [pixels]: 0
Data measured with spectrometer [name]: 1911294U1
Wave   ;Sample   ;Dark     ;Reference;Absorbance
[nm]   ;[counts] ;[counts] ;[counts] ;[A.U]

 860.61;  123.250;   67.750;  833.250; 1.13965
 864.82;  122.250;   49.750;  998.250; 1.11670
 869.02;  159.250;   59.750; 1169.250; 1.04730
 873.23;  159.250;   54.750; 1288.250; 1.07202
 877.43;  152.250;   53.750; 1415.250; 1.14058
 881.63;  173.250;   54.750; 1540.250; 1.09815
 885.83;  176.250;   49.750; 1684.250; 1.11129
 890.03;  185.250;   28.750; 1796.250; 1.05285
 894.23;  191.250;   40.750; 1929.250; 1.09858
 898.42;  197.250;   37.750; 2071.250; 1.10548
 902.62;  218.250;   56.750; 2213.250; 1.12558
 906.81;  217.250;   35.750; 2337.250; 1.10313
 911.00;  238.250;   53.750; 2523.250; 1.12661
 915.19;  253.250;   45.750; 2712.250; 1.10892
 919.38;  286.250;   47.750; 2963.250; 1.08722
 923.57;  296.250;   53.750; 3292.250; 1.12563
 927.76;  340.250;   40.750; 3728.250; 1.09034
 931.94;  378.250;   39.750; 4163.250; 1.08571
 936.13;  400.250;   53.750; 4579.250; 1.11596
 940.31;  422.250;   50.750; 4873.250; 1.11331
 944.49;  461.250;   63.750; 5167.250; 1.10853
 948.67;  465.250;   49.750; 5411.250; 1.11072
 952.85;  470.250;   50.750; 5679.250; 1.12766
 957.03;  503.250;   47.750; 5965.250; 1.11365
 961.21;  520.250;   58.750; 6236.250; 1.12664
 965.38;  522.250;   44.750; 6471.250; 1.12900
 969.55;  532.250;   37.750; 6719.250; 1.13071
 973.73;  564.250;   56.750; 6971.250; 1.13432
 977.90;  581.250;   42.750; 7222.250; 1.12491
 982.06;  619.250;   44.750; 7469.250; 1.11138
 986.23;  616.250;   51.750; 7739.250; 1.13412
 990.40;  643.250;   61.750; 7985.250; 1.13437
 994.56;  665.250;   65.750; 8243.250; 1.13483
 998.72;  680.250;   58.750; 8450.250; 1.13040
1002.88;  677.250;   57.750; 8670.250; 1.14309
1007.04;  701.250;   52.750; 8879.250; 1.13388
1011.20;  717.250;   49.750; 9068.250; 1.13068
1015.36;  732.250;   45.750; 9257.250; 1.12769
1019.51;  751.250;   60.750; 9402.250; 1.13125
1023.67;  770.250;   69.750; 9574.250; 1.13252
1027.82;  782.250;   61.750; 9729.250; 1.12768
1031.97;  780.250;   55.750; 9851.250; 1.13099
1036.12;  789.250;   49.750;10022.250; 1.12987
1040.27;  795.250;   61.750;10174.250; 1.13946
1044.41;  834.250;   73.750;10320.250; 1.12948
1048.56;  832.250;   53.750;10468.250; 1.12638
1052.70;  843.250;   58.750;10629.250; 1.12950
1056.84;  854.250;   47.750;10798.250; 1.12482
1060.98;  873.250;   67.750;10996.250; 1.13250
1065.11;  894.250;   63.750;11181.250; 1.12667
1069.25;  913.250;   63.750;11391.250; 1.12497
1073.38;  929.250;   56.750;11632.250; 1.12277
1077.52;  938.250;   70.750;11862.250; 1.13330
1081.65;  952.250;   62.750;12105.250; 1.13157
1085.77;  976.250;   60.750;12352.250; 1.12795
1089.90;  994.250;   56.750;12603.250; 1.12655
1094.03; 1012.250;   65.750;12857.250; 1.13080
1098.15; 1030.250;   68.750;13146.250; 1.13358
1102.27; 1035.250;   66.750;13436.250; 1.14002
1106.39; 1075.250;   69.750;13733.250; 1.13318
1110.51; 1100.250;   69.750;14055.250; 1.13263
1114.63; 1101.250;   49.750;14464.250; 1.13699
1118.74; 1136.250;   73.750;14874.250; 1.14395
1122.85; 1145.250;   70.750;15167.250; 1.14767
1126.96; 1153.250;   61.750;15350.250; 1.14634
1131.07; 1167.250;   57.750;15457.250; 1.14238
1135.18; 1132.250;   63.750;15545.250; 1.16104
1139.29; 1115.250;   45.750;15604.250; 1.16279
1143.39; 1094.250;   62.750;15613.250; 1.17828
1147.49; 1062.250;   71.750;15592.250; 1.19505
1151.59; 1059.250;   71.750;15618.250; 1.19710
1155.69; 1035.250;   64.750;15618.250; 1.20483
1159.78; 1021.250;   61.750;15619.250; 1.20989
1163.88; 1030.250;   66.750;15654.250; 1.20892
1167.97; 1018.250;   60.750;15657.250; 1.21189
1172.06;  999.250;   60.750;15668.250; 1.22090
1176.15;  999.250;   53.750;15670.250; 1.21792
1180.23;  990.250;   59.750;15679.250; 1.22495
1184.32;  982.250;   50.750;15690.250; 1.22504
1188.40;  980.250;   57.750;15712.250; 1.22967
1192.48;  987.250;   55.750;15725.250; 1.22587
1196.56;  989.250;   53.750;15754.250; 1.22487
1200.64; 1004.250;   72.750;15783.250; 1.22701
1204.71;  984.250;   50.750;15806.250; 1.22732
1208.78; 1005.250;   69.750;15849.250; 1.22705
1212.85; 1003.250;   54.750;15854.250; 1.22161
1216.92;  998.250;   37.750;15840.250; 1.21623
1220.99; 1013.250;   49.750;15897.250; 1.21611
1225.05; 1027.250;   60.750;15920.250; 1.21509
1229.11; 1016.250;   53.750;15924.250; 1.21719
1233.17; 1015.250;   58.750;15926.250; 1.21982
1237.23; 1036.250;   49.750;15943.250; 1.20712
1241.29; 1030.250;   51.750;15960.250; 1.21107
1245.34; 1051.250;   79.750;16029.250; 1.21530
1249.39; 1041.250;   55.750;16081.250; 1.21115
1253.44; 1047.250;   36.750;16122.250; 1.20190
1257.49; 1067.250;   73.750;16225.250; 1.21104
1261.53; 1072.250;   40.750;16273.250; 1.19692
1265.58; 1071.250;   46.750;16338.250; 1.20145
1269.62; 1074.250;   46.750;16412.250; 1.20215
1273.65; 1063.250;   55.750;16472.250; 1.21204
1277.69; 1073.250;   53.750;16552.250; 1.20906
1281.72; 1075.250;   65.750;16612.250; 1.21460
1285.76; 1073.250;   66.750;16662.250; 1.21718
1289.79; 1074.250;   56.750;16697.250; 1.21363
1293.81; 1073.250;   44.750;16713.250; 1.20969
1297.84; 1062.250;   49.750;16765.250; 1.21772
1301.86; 1065.250;   43.750;16807.250; 1.21513
1305.88; 1052.250;   58.750;16824.250; 1.22725
1309.90; 1050.250;   49.750;16842.250; 1.22490
1313.92; 1014.250;   55.750;16828.250; 1.24301
1317.93; 1024.250;   65.750;16838.250; 1.24301
1321.94; 1000.250;   46.750;16825.250; 1.24543
1325.95;  973.250;   64.750;16797.250; 1.26524
1329.96;  956.250;   63.750;16802.250; 1.27311
1333.96;  942.250;   52.750;16773.250; 1.27410
1337.96;  915.250;   63.750;16776.250; 1.29286
1341.96;  883.250;   46.750;16748.250; 1.30029
1345.96;  858.250;   59.750;16622.250; 1.31685
1349.95;  839.250;   42.750;16410.250; 1.31280
1353.95;  794.250;   67.750;16154.250; 1.34523
1357.94;  771.250;   50.750;15843.250; 1.34082
1361.92;  745.250;   50.750;15571.250; 1.34923
1365.91;  704.250;   46.750;15308.250; 1.36570
1369.89;  675.250;   50.750;15042.250; 1.38031
1373.87;  612.250;   48.750;14460.250; 1.40782
1377.85;  585.250;   60.750;13607.250; 1.41208
1381.82;  484.250;   48.750;12795.250; 1.46640
1385.80;  445.250;   50.750;12441.250; 1.49704
1389.77;  377.250;   54.750;12376.250; 1.58213
1393.74;  331.250;   63.750;12523.250; 1.66818
1397.70;  290.250;   57.750;12861.250; 1.74091
1401.66;  257.250;   57.750;13177.250; 1.81797
1405.62;  218.250;   34.750;13448.250; 1.86391
1409.58;  204.250;   50.750;13653.250; 1.94751
1413.54;  181.250;   50.750;13787.250; 2.02227
1417.49;  158.250;   27.750;13838.250; 2.02460
1421.44;  176.250;   63.750;13894.250; 2.08969
1425.39;  160.250;   54.750;13879.250; 2.11740
1429.33;  169.250;   64.750;13864.250; 2.12075
1433.27;  150.250;   54.750;13809.250; 2.15844
1437.21;  138.250;   48.750;13776.250; 2.18577
1441.15;  163.250;   52.750;13748.250; 2.09322
1445.09;  143.250;   60.750;13691.250; 2.21806
1449.02;  124.250;   57.750;13611.250; 2.30923
1452.95;  144.250;   52.750;13536.250; 2.16838
1456.87;  134.250;   53.750;13439.250; 2.22084
1460.80;  139.250;   43.750;13345.250; 2.14390
1464.72;  131.250;   59.750;13253.250; 2.26605
1468.64;  133.250;   43.750;13131.250; 2.16503
1472.55;  147.250;   63.750;13051.250; 2.19184
1476.47;  134.250;   43.750;12969.250; 2.15480
1480.38;  145.250;   38.750;12870.250; 2.08093
1484.28;  161.250;   54.750;12750.250; 2.07630
1488.19;  154.250;   50.750;12663.250; 2.08586
1492.09;  131.250;   28.750;12533.250; 2.08634
1495.99;  156.250;   58.750;12434.250; 2.10356
1499.89;  166.250;   46.750;12320.250; 2.01160
1503.78;  162.250;   48.750;12228.250; 2.03063
1507.67;  174.250;   52.750;12113.250; 1.99679
1511.56;  167.250;   33.750;11982.250; 1.95183
1515.44;  189.250;   50.750;11884.250; 1.93166
1519.33;  176.250;   48.750;11757.250; 1.96299
1523.21;  200.250;   35.750;11649.250; 1.84880
1527.08;  196.250;   57.750;11506.250; 1.91730
1530.96;  199.250;   39.750;11368.250; 1.85141
1534.83;  212.250;   52.750;11249.250; 1.84632
1538.70;  209.250;   57.750;11082.250; 1.86195
1542.56;  211.250;   28.750;10958.250; 1.77734
1546.42;  225.250;   39.750;10836.250; 1.76494
1550.28;  233.250;   58.750;10683.250; 1.78451
1554.14;  217.250;   39.750;10510.250; 1.77077
1557.99;  226.250;   41.750;10388.250; 1.74880
1561.84;  235.250;   33.750;10234.250; 1.70435
1565.69;  238.250;   40.750;10095.250; 1.70679
1569.54;  244.250;   24.750; 9939.250; 1.65484
1573.38;  238.250;   40.750; 9804.250; 1.69404
1577.22;  252.250;   31.750; 9649.250; 1.63965
1581.05;  251.250;   49.750; 9522.250; 1.67219
1584.89;  250.250;   45.750; 9369.250; 1.65889
1588.72;  243.250;   41.750; 9215.250; 1.65826
1592.54;  260.250;   35.750; 9061.250; 1.60425
1596.37;  239.250;   22.750; 8908.250; 1.61322
1600.19;  269.250;   43.750; 8774.250; 1.58789
1604.01;  256.250;   33.750; 8610.250; 1.58598
1607.82;  245.250;   31.750; 8473.250; 1.59702
1611.63;  247.250;   22.750; 8316.250; 1.56752
1615.44;  265.250;   26.750; 8167.250; 1.53316
1619.25;  242.250;   34.750; 7998.250; 1.58409
1623.05;  243.250;   13.750; 7822.250; 1.53178
1626.85;  250.250;   26.750; 7668.250; 1.53390
1630.64;  255.250;   42.750; 7511.250; 1.54587
1634.44;  258.250;   26.750; 7307.250; 1.49761
1638.23;  232.250;   18.750; 7114.250; 1.52159
1642.01;  237.250;   39.750; 6938.250; 1.54319
1645.80;  232.250;   42.750; 6743.250; 1.54850
1649.58;  233.250;   38.750; 6531.250; 1.52349
1653.35;  236.250;   44.750; 6309.250; 1.51472
1657.13;  215.250;   36.750; 6064.250; 1.52850
1660.90;  216.250;   34.750; 5808.250; 1.50256
1664.67;  193.250;   28.750; 5491.250; 1.52123
1668.43;  202.250;   24.750; 5119.250; 1.45790
1672.19;  185.250;   35.750; 4656.250; 1.49005
1675.95;  169.250;   31.750; 4113.250; 1.47252
1679.70;  143.250;   46.750; 3563.250; 1.56158
1683.46;  144.250;   23.750; 3047.250; 1.39952
1687.20;  122.250;   39.750; 2617.250; 1.49474
1690.95;  124.250;   36.750; 2243.250; 1.40170
1694.69;  116.250;   56.750; 1964.250; 1.50595
1698.43;  103.250;   22.750; 1699.250; 1.31861
1702.16;   97.250;   44.750; 1533.250; 1.45259
1705.89;   90.250;   30.750; 1372.250; 1.35307
1709.62;  101.250;   25.750; 1277.250; 1.21948
1713.35;   95.250;   17.750; 1187.250; 1.17870
1717.07;   99.250;   42.750; 1123.250; 1.28158
1720.79;   96.250;   41.750; 1064.250; 1.27327
1724.50;  108.250;   44.750; 1019.250; 1.18601
1728.21;  100.250;   29.750;  974.250; 1.12701
1731.92;   91.250;   25.750;  931.250; 1.14065
1735.63;   83.250;   34.750;  925.250; 1.26389
1739.33;   93.250;   23.750;  909.250; 1.10520
1743.02;   95.250;   21.750;  865.250; 1.05980
1746.72;  103.250;   33.750;  872.250; 1.08152
1750.41;  107.250;   37.750;  865.250; 1.07578
1754.10;   91.250;   44.750;  846.250; 1.23645

