
Integration time [ms]:   3.780
Averaging Nr. [scans]: 1
Smoothing Nr. [pixels]: 0
Data measured with spectrometer [name]: 1911294U1
Wave   ;Sample   ;Dark     ;Reference;Absorbance
[nm]   ;[counts] ;[counts] ;[counts] ;[A.U]

 860.61;   95.500;   67.750;  833.250; 1.44068
 864.82;  110.500;   49.750;  998.250; 1.19349
 869.02;  115.500;   59.750; 1169.250; 1.29888
 873.23;  101.500;   54.750; 1288.250; 1.42136
 877.43;  119.500;   53.750; 1415.250; 1.31612
 881.63;  145.500;   54.750; 1540.250; 1.21403
 885.83;  147.500;   49.750; 1684.250; 1.22327
 890.03;  141.500;   28.750; 1796.250; 1.19524
 894.23;  140.500;   40.750; 1929.250; 1.27720
 898.42;  151.500;   37.750; 2071.250; 1.25229
 902.62;  164.500;   56.750; 2213.250; 1.30133
 906.81;  155.500;   35.750; 2337.250; 1.28374
 911.00;  170.500;   53.750; 2523.250; 1.32535
 915.19;  196.500;   45.750; 2712.250; 1.24768
 919.38;  215.500;   47.750; 2963.250; 1.24005
 923.57;  226.500;   53.750; 3292.250; 1.27293
 927.76;  247.500;   40.750; 3728.250; 1.25129
 931.94;  273.500;   39.750; 4163.250; 1.24651
 936.13;  296.500;   53.750; 4579.250; 1.27051
 940.31;  311.500;   50.750; 4873.250; 1.26705
 944.49;  331.500;   63.750; 5167.250; 1.28014
 948.67;  341.500;   49.750; 5411.250; 1.26428
 952.85;  346.500;   50.750; 5679.250; 1.27947
 957.03;  370.500;   47.750; 5965.250; 1.26327
 961.21;  375.500;   58.750; 6236.250; 1.29010
 965.38;  385.500;   44.750; 6471.250; 1.27554
 969.55;  378.500;   37.750; 6719.250; 1.29244
 973.73;  409.500;   56.750; 6971.250; 1.29229
 977.90;  413.500;   42.750; 7222.250; 1.28701
 982.06;  437.500;   44.750; 7469.250; 1.27655
 986.23;  426.500;   51.750; 7739.250; 1.31204
 990.40;  463.500;   61.750; 7985.250; 1.29496
 994.56;  466.500;   65.750; 8243.250; 1.30975
 998.72;  488.500;   58.750; 8450.250; 1.29062
1002.88;  490.500;   57.750; 8670.250; 1.29889
1007.04;  507.500;   52.750; 8879.250; 1.28802
1011.20;  527.500;   49.750; 9068.250; 1.27593
1015.36;  523.500;   45.750; 9257.250; 1.28513
1019.51;  524.500;   60.750; 9402.250; 1.30413
1023.67;  545.500;   69.750; 9574.250; 1.30055
1027.82;  541.500;   61.750; 9729.250; 1.30430
1031.97;  567.500;   55.750; 9851.250; 1.28197
1036.12;  569.500;   49.750;10022.250; 1.28301
1040.27;  570.500;   61.750;10174.250; 1.29835
1044.41;  590.500;   73.750;10320.250; 1.29730
1048.56;  598.500;   53.750;10468.250; 1.28144
1052.70;  601.500;   58.750;10629.250; 1.28950
1056.84;  592.500;   47.750;10798.250; 1.29523
1060.98;  615.500;   67.750;10996.250; 1.29998
1065.11;  629.500;   63.750;11181.250; 1.29338
1069.25;  639.500;   63.750;11391.250; 1.29390
1073.38;  656.500;   56.750;11632.250; 1.28557
1077.52;  672.500;   70.750;11862.250; 1.29215
1081.65;  681.500;   62.750;12105.250; 1.28920
1085.77;  668.500;   60.750;12352.250; 1.30588
1089.90;  689.500;   56.750;12603.250; 1.29729
1094.03;  706.500;   65.750;12857.250; 1.30023
1098.15;  722.500;   68.750;13146.250; 1.30111
1102.27;  720.500;   66.750;13436.250; 1.31070
1106.39;  746.500;   69.750;13733.250; 1.30513
1110.51;  760.500;   69.750;14055.250; 1.30636
1114.63;  761.500;   49.750;14464.250; 1.30647
1118.74;  789.500;   73.750;14874.250; 1.31552
1122.85;  808.500;   70.750;15167.250; 1.31097
1126.96;  795.500;   61.750;15350.250; 1.31882
1131.07;  808.500;   57.750;15457.250; 1.31201
1135.18;  786.500;   63.750;15545.250; 1.33082
1139.29;  772.500;   45.750;15604.250; 1.33058
1143.39;  764.500;   62.750;15613.250; 1.34556
1147.49;  733.500;   71.750;15592.250; 1.37021
1151.59;  718.500;   71.750;15618.250; 1.38090
1155.69;  711.500;   64.750;15618.250; 1.38109
1159.78;  700.500;   61.750;15619.250; 1.38661
1163.88;  716.500;   66.750;15654.250; 1.38003
1167.97;  690.500;   60.750;15657.250; 1.39386
1172.06;  693.500;   60.750;15668.250; 1.39210
1176.15;  675.500;   53.750;15670.250; 1.39997
1180.23;  694.500;   59.750;15679.250; 1.39106
1184.32;  660.500;   50.750;15690.250; 1.40907
1188.40;  673.500;   57.750;15712.250; 1.40523
1192.48;  670.500;   55.750;15725.250; 1.40636
1196.56;  675.500;   53.750;15754.250; 1.40230
1200.64;  677.500;   72.750;15783.250; 1.41461
1204.71;  674.500;   50.750;15806.250; 1.40242
1208.78;  688.500;   69.750;15849.250; 1.40658
1212.85;  683.500;   54.750;15854.250; 1.40017
1216.92;  669.500;   37.750;15840.250; 1.39818
1220.99;  678.500;   49.750;15897.250; 1.40148
1225.05;  689.500;   60.750;15920.250; 1.40181
1229.11;  680.500;   53.750;15924.250; 1.40350
1233.17;  699.500;   58.750;15926.250; 1.39382
1237.23;  688.500;   49.750;15943.250; 1.39589
1241.29;  673.500;   51.750;15960.250; 1.40801
1245.34;  712.500;   79.750;16029.250; 1.40151
1249.39;  694.500;   55.750;16081.250; 1.39948
1253.44;  685.500;   36.750;16122.250; 1.39436
1257.49;  722.500;   73.750;16225.250; 1.39614
1261.53;  694.500;   40.750;16273.250; 1.39497
1265.58;  712.500;   46.750;16338.250; 1.38865
1269.62;  707.500;   46.750;16412.250; 1.39389
1273.65;  706.500;   55.750;16472.250; 1.40187
1277.69;  717.500;   53.750;16552.250; 1.39544
1281.72;  707.500;   65.750;16612.250; 1.41134
1285.76;  712.500;   66.750;16662.250; 1.40993
1289.79;  711.500;   56.750;16697.250; 1.40509
1293.81;  691.500;   44.750;16713.250; 1.41116
1297.84;  688.500;   49.750;16765.250; 1.41779
1301.86;  697.500;   43.750;16807.250; 1.40895
1305.88;  688.500;   58.750;16824.250; 1.42525
1309.90;  693.500;   49.750;16842.250; 1.41640
1313.92;  673.500;   55.750;16828.250; 1.43379
1317.93;  682.500;   65.750;16838.250; 1.43449
1321.94;  662.500;   46.750;16825.250; 1.43535
1325.95;  646.500;   64.750;16797.250; 1.45882
1329.96;  638.500;   63.750;16802.250; 1.46424
1333.96;  620.500;   52.750;16773.250; 1.46909
1337.96;  605.500;   63.750;16776.250; 1.48924
1341.96;  603.500;   46.750;16748.250; 1.47710
1345.96;  589.500;   59.750;16622.250; 1.49505
1349.95;  559.500;   42.750;16410.250; 1.50070
1353.95;  554.500;   67.750;16154.250; 1.51916
1357.94;  526.500;   50.750;15843.250; 1.52107
1361.92;  515.500;   50.750;15571.250; 1.52369
1365.91;  482.500;   46.750;15308.250; 1.54436
1369.89;  459.500;   50.750;15042.250; 1.56439
1373.87;  441.500;   48.750;14460.250; 1.56459
1377.85;  413.500;   60.750;13607.250; 1.58436
1381.82;  355.500;   48.750;12795.250; 1.61861
1385.80;  339.500;   50.750;12441.250; 1.63257
1389.77;  317.500;   54.750;12376.250; 1.67112
1393.74;  300.500;   63.750;12523.250; 1.72121
1397.70;  274.500;   57.750;12861.250; 1.77137
1401.66;  255.500;   57.750;13177.250; 1.82180
1405.62;  229.500;   34.750;13448.250; 1.83806
1409.58;  220.500;   50.750;13653.250; 1.90381
1413.54;  212.500;   50.750;13787.250; 1.92903
1417.49;  195.500;   27.750;13838.250; 1.91555
1421.44;  209.500;   63.750;13894.250; 1.97723
1425.39;  196.500;   54.750;13879.250; 1.98913
1429.33;  198.500;   64.750;13864.250; 2.01357
1433.27;  186.500;   54.750;13809.250; 2.01869
1437.21;  177.500;   48.750;13776.250; 2.02784
1441.15;  198.500;   52.750;13748.250; 1.97297
1445.09;  184.500;   60.750;13691.250; 2.04197
1449.02;  183.500;   57.750;13611.250; 2.03254
1452.95;  187.500;   52.750;13536.250; 2.00027
1456.87;  178.500;   53.750;13439.250; 2.03059
1460.80;  181.500;   43.750;13345.250; 1.98481
1464.72;  184.500;   59.750;13253.250; 2.02432
1468.64;  167.500;   43.750;13131.250; 2.02431
1472.55;  185.500;   63.750;13051.250; 2.02806
1476.47;  167.500;   43.750;12969.250; 2.01890
1480.38;  168.500;   38.750;12870.250; 1.99517
1484.28;  182.500;   54.750;12750.250; 1.99729
1488.19;  181.500;   50.750;12663.250; 1.98436
1492.09;  166.500;   28.750;12533.250; 1.95797
1495.99;  161.500;   58.750;12434.250; 2.08078
1499.89;  176.500;   46.750;12320.250; 1.97586
1503.78;  193.500;   48.750;12228.250; 1.92501
1507.67;  186.500;   52.750;12113.250; 1.95507
1511.56;  171.500;   33.750;11982.250; 1.93822
1515.44;  170.500;   50.750;11884.250; 1.99484
1519.33;  196.500;   48.750;11757.250; 1.89897
1523.21;  186.500;   35.750;11649.250; 1.88671
1527.08;  191.500;   57.750;11506.250; 1.93245
1530.96;  189.500;   39.750;11368.250; 1.87881
1534.83;  213.500;   52.750;11249.250; 1.84293
1538.70;  190.500;   57.750;11082.250; 1.91932
1542.56;  185.500;   28.750;10958.250; 1.84339
1546.42;  189.500;   39.750;10836.250; 1.85792
1550.28;  208.500;   58.750;10683.250; 1.85094
1554.14;  186.500;   39.750;10510.250; 1.85339
1557.99;  203.500;   41.750;10388.250; 1.80595
1561.84;  188.500;   33.750;10234.250; 1.81899
1565.69;  192.500;   40.750;10095.250; 1.82123
1569.54;  180.500;   24.750; 9939.250; 1.80384
1573.38;  201.500;   40.750; 9804.250; 1.78345
1577.22;  193.500;   31.750; 9649.250; 1.77422
1581.05;  192.500;   49.750; 9522.250; 1.82189
1584.89;  190.500;   45.750; 9369.250; 1.80896
1588.72;  192.500;   41.750; 9215.250; 1.78428
1592.54;  184.500;   35.750; 9061.250; 1.78301
1596.37;  188.500;   22.750; 8908.250; 1.72923
1600.19;  200.500;   43.750; 8774.250; 1.74583
1604.01;  181.500;   33.750; 8610.250; 1.76378
1607.82;  186.500;   31.750; 8473.250; 1.73679
1611.63;  170.500;   22.750; 8316.250; 1.74921
1615.44;  198.500;   26.750; 8167.250; 1.67575
1619.25;  168.500;   34.750; 7998.250; 1.77481
1623.05;  178.500;   13.750; 7822.250; 1.67574
1626.85;  187.500;   26.750; 7668.250; 1.67703
1630.64;  187.500;   42.750; 7511.250; 1.71261
1634.44;  177.500;   26.750; 7307.250; 1.68390
1638.23;  164.500;   18.750; 7114.250; 1.68737
1642.01;  173.500;   39.750; 6938.250; 1.71246
1645.80;  179.500;   42.750; 6743.250; 1.69018
1649.58;  165.500;   38.750; 6531.250; 1.70946
1653.35;  180.500;   44.750; 6309.250; 1.66415
1657.13;  150.500;   36.750; 6064.250; 1.72419
1660.90;  158.500;   34.750; 5808.250; 1.66889
1664.67;  143.500;   28.750; 5491.250; 1.67764
1668.43;  152.500;   24.750; 5119.250; 1.60074
1672.19;  142.500;   35.750; 4656.250; 1.63632
1675.95;  107.500;   31.750; 4113.250; 1.73144
1679.70;  101.500;   46.750; 3563.250; 1.80773
1683.46;  111.500;   23.750; 3047.250; 1.53726
1687.20;  102.500;   39.750; 2617.250; 1.61358
1690.95;   85.500;   36.750; 2243.250; 1.65573
1694.69;  105.500;   56.750; 1964.250; 1.59249
1698.43;   88.500;   22.750; 1699.250; 1.40651
1702.16;   89.500;   44.750; 1533.250; 1.52196
1705.89;   83.500;   30.750; 1372.250; 1.40537
1709.62;   66.500;   25.750; 1277.250; 1.48730
1713.35;   76.500;   17.750; 1187.250; 1.29899
1717.07;   84.500;   42.750; 1123.250; 1.41297
1720.79;   80.500;   41.750; 1064.250; 1.42139
1724.50;   81.500;   44.750; 1019.250; 1.42352
1728.21;   73.500;   29.750;  974.250; 1.33422
1731.92;   74.500;   25.750;  931.250; 1.26891
1735.63;   70.500;   34.750;  925.250; 1.39636
1739.33;   82.500;   23.750;  909.250; 1.17818
1743.02;   68.500;   21.750;  865.250; 1.25630
1746.72;   76.500;   33.750;  872.250; 1.29257
1750.41;   77.500;   37.750;  865.250; 1.31843
1754.10;   83.500;   44.750;  846.250; 1.31563

