
Integration time [ms]:   3.780
Averaging Nr. [scans]: 1
Smoothing Nr. [pixels]: 0
Data measured with spectrometer [name]: 1911294U1
Wave   ;Sample   ;Dark     ;Reference;Absorbance
[nm]   ;[counts] ;[counts] ;[counts] ;[A.U]

 860.61;  169.750;   67.750;  833.250; 0.87535
 864.82;  196.750;   49.750;  998.250; 0.80972
 869.02;  213.750;   59.750; 1169.250; 0.85761
 873.23;  225.750;   54.750; 1288.250; 0.85814
 877.43;  232.750;   53.750; 1415.250; 0.88116
 881.63;  258.750;   54.750; 1540.250; 0.86224
 885.83;  276.750;   49.750; 1684.250; 0.85736
 890.03;  280.750;   28.750; 1796.250; 0.84596
 894.23;  292.750;   40.750; 1929.250; 0.87472
 898.42;  330.750;   37.750; 2071.250; 0.84138
 902.62;  347.750;   56.750; 2213.250; 0.86986
 906.81;  350.750;   35.750; 2337.250; 0.86370
 911.00;  376.750;   53.750; 2523.250; 0.88341
 915.19;  404.750;   45.750; 2712.250; 0.87085
 919.38;  447.750;   47.750; 2963.250; 0.86265
 923.57;  497.750;   53.750; 3292.250; 0.86296
 927.76;  539.750;   40.750; 3728.250; 0.86863
 931.94;  600.750;   39.750; 4163.250; 0.86630
 936.13;  654.750;   53.750; 4579.250; 0.87679
 940.31;  699.750;   50.750; 4873.250; 0.87103
 944.49;  742.750;   63.750; 5167.250; 0.87600
 948.67;  759.750;   49.750; 5411.250; 0.87803
 952.85;  776.750;   50.750; 5679.250; 0.88946
 957.03;  813.750;   47.750; 5965.250; 0.88791
 961.21;  855.750;   58.750; 6236.250; 0.88935
 965.38;  887.750;   44.750; 6471.250; 0.88215
 969.55;  903.750;   37.750; 6719.250; 0.88736
 973.73;  940.750;   56.750; 6971.250; 0.89331
 977.90;  962.750;   42.750; 7222.250; 0.89231
 982.06; 1007.750;   44.750; 7469.250; 0.88704
 986.23; 1029.750;   51.750; 7739.250; 0.89545
 990.40; 1077.750;   61.750; 7985.250; 0.89202
 994.56; 1116.750;   65.750; 8243.250; 0.89102
 998.72; 1121.750;   58.750; 8450.250; 0.89731
1002.88; 1161.750;   57.750; 8670.250; 0.89216
1007.04; 1192.750;   52.750; 8879.250; 0.88888
1011.20; 1210.750;   49.750; 9068.250; 0.89030
1015.36; 1242.750;   45.750; 9257.250; 0.88624
1019.51; 1256.750;   60.750; 9402.250; 0.89269
1023.67; 1296.750;   69.750; 9574.250; 0.88908
1027.82; 1308.750;   61.750; 9729.250; 0.88945
1031.97; 1331.750;   55.750; 9851.250; 0.88518
1036.12; 1365.750;   49.750;10022.250; 0.87955
1040.27; 1374.750;   61.750;10174.250; 0.88659
1044.41; 1400.750;   73.750;10320.250; 0.88770
1048.56; 1420.750;   53.750;10468.250; 0.88187
1052.70; 1439.750;   58.750;10629.250; 0.88390
1056.84; 1460.750;   47.750;10798.250; 0.88129
1060.98; 1485.750;   67.750;10996.250; 0.88688
1065.11; 1516.750;   63.750;11181.250; 0.88374
1069.25; 1534.750;   63.750;11391.250; 0.88652
1073.38; 1571.750;   56.750;11632.250; 0.88313
1077.52; 1606.750;   70.750;11862.250; 0.88518
1081.65; 1624.750;   62.750;12105.250; 0.88704
1085.77; 1660.750;   60.750;12352.250; 0.88548
1089.90; 1679.750;   56.750;12603.250; 0.88820
1094.03; 1731.750;   65.750;12857.250; 0.88525
1098.15; 1763.750;   68.750;13146.250; 0.88736
1102.27; 1792.750;   66.750;13436.250; 0.88907
1106.39; 1840.750;   69.750;13733.250; 0.88734
1110.51; 1867.750;   69.750;14055.250; 0.89089
1114.63; 1905.750;   49.750;14464.250; 0.89022
1118.74; 1969.750;   73.750;14874.250; 0.89244
1122.85; 2012.750;   70.750;15167.250; 0.89063
1126.96; 2014.750;   61.750;15350.250; 0.89366
1131.07; 2033.750;   57.750;15457.250; 0.89172
1135.18; 2012.750;   63.750;15545.250; 0.90000
1139.29; 2006.750;   45.750;15604.250; 0.89949
1143.39; 1974.750;   62.750;15613.250; 0.91026
1147.49; 1951.750;   71.750;15592.250; 0.91675
1151.59; 1934.750;   71.750;15618.250; 0.92142
1155.69; 1896.750;   64.750;15618.250; 0.92890
1159.78; 1893.750;   61.750;15619.250; 0.92901
1163.88; 1881.750;   66.750;15654.250; 0.93390
1167.97; 1869.750;   60.750;15657.250; 0.93559
1172.06; 1881.750;   60.750;15668.250; 0.93302
1176.15; 1864.750;   53.750;15670.250; 0.93567
1180.23; 1874.750;   59.750;15679.250; 0.93479
1184.32; 1852.750;   50.750;15690.250; 0.93847
1188.40; 1864.750;   57.750;15712.250; 0.93768
1192.48; 1864.750;   55.750;15725.250; 0.93762
1196.56; 1856.750;   53.750;15754.250; 0.93992
1200.64; 1879.750;   72.750;15783.250; 0.93923
1204.71; 1886.750;   50.750;15806.250; 0.93356
1208.78; 1894.750;   69.750;15849.250; 0.93683
1212.85; 1888.750;   54.750;15854.250; 0.93524
1216.92; 1880.750;   37.750;15840.250; 0.93320
1220.99; 1915.750;   49.750;15897.250; 0.92905
1225.05; 1911.750;   60.750;15920.250; 0.93288
1229.11; 1927.750;   53.750;15924.250; 0.92782
1233.17; 1936.750;   58.750;15926.250; 0.92681
1237.23; 1932.750;   49.750;15943.250; 0.92637
1241.29; 1947.750;   51.750;15960.250; 0.92379
1245.34; 1961.750;   79.750;16029.250; 0.92813
1249.39; 1949.750;   55.750;16081.250; 0.92743
1253.44; 1964.750;   36.750;16122.250; 0.92133
1257.49; 1990.750;   73.750;16225.250; 0.92559
1261.53; 2003.750;   40.750;16273.250; 0.91747
1265.58; 2010.750;   46.750;16338.250; 0.91882
1269.62; 2000.750;   46.750;16412.250; 0.92300
1273.65; 2018.750;   55.750;16472.250; 0.92236
1277.69; 2031.750;   53.750;16552.250; 0.92122
1281.72; 2037.750;   65.750;16612.250; 0.92380
1285.76; 2047.750;   66.750;16662.250; 0.92311
1289.79; 2024.750;   56.750;16697.250; 0.92714
1293.81; 2033.750;   44.750;16713.250; 0.92326
1297.84; 2017.750;   49.750;16765.250; 0.92909
1301.86; 2020.750;   43.750;16807.250; 0.92836
1305.88; 2009.750;   58.750;16824.250; 0.93416
1309.90; 2002.750;   49.750;16842.250; 0.93441
1313.92; 1988.750;   55.750;16828.250; 0.93837
1317.93; 1964.750;   65.750;16838.250; 0.94607
1321.94; 1932.750;   46.750;16825.250; 0.94921
1325.95; 1908.750;   64.750;16797.250; 0.95780
1329.96; 1895.750;   63.750;16802.250; 0.96079
1333.96; 1842.750;   52.750;16773.250; 0.97040
1337.96; 1810.750;   63.750;16776.250; 0.98075
1341.96; 1784.750;   46.750;16748.250; 0.98271
1345.96; 1736.750;   59.750;16622.250; 0.99459
1349.95; 1689.750;   42.750;16410.250; 0.99729
1353.95; 1641.750;   67.750;16154.250; 1.00946
1357.94; 1589.750;   50.750;15843.250; 1.01121
1361.92; 1534.750;   50.750;15571.250; 1.01947
1365.91; 1482.750;   46.750;15308.250; 1.02644
1369.89; 1410.750;   50.750;15042.250; 1.04231
1373.87; 1322.750;   48.750;14460.250; 1.05354
1377.85; 1180.750;   60.750;13607.250; 1.08261
1381.82; 1047.750;   48.750;12795.250; 1.10583
1385.80;  929.750;   50.750;12441.250; 1.14910
1389.77;  835.750;   54.750;12376.250; 1.19801
1393.74;  703.750;   63.750;12523.250; 1.28932
1397.70;  624.750;   57.750;12861.250; 1.35375
1401.66;  543.750;   57.750;13177.250; 1.43128
1405.62;  478.750;   34.750;13448.250; 1.48016
1409.58;  417.750;   50.750;13653.250; 1.56895
1413.54;  371.750;   50.750;13787.250; 1.63137
1417.49;  324.750;   27.750;13838.250; 1.66745
1421.44;  333.750;   63.750;13894.250; 1.70947
1425.39;  297.750;   54.750;13879.250; 1.75504
1429.33;  284.750;   64.750;13864.250; 1.79744
1433.27;  269.750;   54.750;13809.250; 1.80601
1437.21;  260.750;   48.750;13776.250; 1.81126
1441.15;  262.750;   52.750;13748.250; 1.81436
1445.09;  246.750;   60.750;13691.250; 1.86500
1449.02;  240.750;   57.750;13611.250; 1.86960
1452.95;  248.750;   52.750;13536.250; 1.83755
1456.87;  248.750;   53.750;13439.250; 1.83660
1460.80;  255.750;   43.750;13345.250; 1.79756
1464.72;  257.750;   59.750;13253.250; 1.82369
1468.64;  254.750;   43.750;13131.250; 1.79257
1472.55;  280.750;   63.750;13051.250; 1.77707
1476.47;  268.750;   43.750;12969.250; 1.75926
1480.38;  295.750;   38.750;12870.250; 1.69834
1484.28;  306.750;   54.750;12750.250; 1.70225
1488.19;  327.750;   50.750;12663.250; 1.65832
1492.09;  318.750;   28.750;12533.250; 1.63467
1495.99;  350.750;   58.750;12434.250; 1.62718
1499.89;  363.750;   46.750;12320.250; 1.58791
1503.78;  381.750;   48.750;12228.250; 1.56319
1507.67;  399.750;   52.750;12113.250; 1.54104
1511.56;  409.750;   33.750;11982.250; 1.50213
1515.44;  427.750;   50.750;11884.250; 1.49677
1519.33;  459.750;   48.750;11757.250; 1.45466
1523.21;  462.750;   35.750;11649.250; 1.43454
1527.08;  485.750;   57.750;11506.250; 1.42730
1530.96;  496.750;   39.750;11368.250; 1.39426
1534.83;  527.750;   52.750;11249.250; 1.37239
1538.70;  545.750;   57.750;11082.250; 1.35394
1542.56;  553.750;   28.750;10958.250; 1.31844
1546.42;  564.750;   39.750;10836.250; 1.31312
1550.28;  582.750;   58.750;10683.250; 1.30698
1554.14;  585.750;   39.750;10510.250; 1.28277
1557.99;  592.750;   41.750;10388.250; 1.27364
1561.84;  602.750;   33.750;10234.250; 1.25351
1565.69;  610.750;   40.750;10095.250; 1.24649
1569.54;  605.750;   24.750; 9939.250; 1.23209
1573.38;  628.750;   40.750; 9804.250; 1.22023
1577.22;  634.750;   31.750; 9649.250; 1.20274
1581.05;  639.750;   49.750; 9522.250; 1.20561
1584.89;  643.750;   45.750; 9369.250; 1.19288
1588.72;  648.750;   41.750; 9215.250; 1.17935
1592.54;  638.750;   35.750; 9061.250; 1.17515
1596.37;  641.750;   22.750; 8908.250; 1.15699
1600.19;  649.750;   43.750; 8774.250; 1.15857
1604.01;  647.750;   33.750; 8610.250; 1.14514
1607.82;  632.750;   31.750; 8473.250; 1.14755
1611.63;  637.750;   22.750; 8316.250; 1.12986
1615.44;  644.750;   26.750; 8167.250; 1.11966
1619.25;  618.750;   34.750; 7998.250; 1.13469
1623.05;  627.750;   13.750; 7822.250; 1.10440
1626.85;  630.750;   26.750; 7668.250; 1.10214
1630.64;  628.750;   42.750; 7511.250; 1.10534
1634.44;  616.750;   26.750; 7307.250; 1.09131
1638.23;  595.750;   18.750; 7114.250; 1.08981
1642.01;  591.750;   39.750; 6938.250; 1.09682
1645.80;  595.750;   42.750; 6743.250; 1.08338
1649.58;  564.750;   38.750; 6531.250; 1.09143
1653.35;  566.750;   44.750; 6309.250; 1.07922
1657.13;  525.750;   36.750; 6064.250; 1.09083
1660.90;  523.750;   34.750; 5808.250; 1.07213
1664.67;  481.750;   28.750; 5491.250; 1.08129
1668.43;  468.750;   24.750; 5119.250; 1.05972
1672.19;  429.750;   35.750; 4656.250; 1.06919
1675.95;  378.750;   31.750; 4113.250; 1.07049
1679.70;  325.750;   46.750; 3563.250; 1.10051
1683.46;  306.750;   23.750; 3047.250; 1.02872
1687.20;  274.750;   39.750; 2617.250; 1.04013
1690.95;  242.750;   36.750; 2243.250; 1.02984
1694.69;  215.750;   56.750; 1964.250; 1.07907
1698.43;  204.750;   22.750; 1699.250; 0.96433
1702.16;  185.750;   44.750; 1533.250; 1.02353
1705.89;  165.750;   30.750; 1372.250; 0.99726
1709.62;  161.750;   25.750; 1277.250; 0.96389
1713.35;  157.750;   17.750; 1187.250; 0.92187
1717.07;  168.750;   42.750; 1123.250; 0.93325
1720.79;  146.750;   41.750; 1064.250; 0.98847
1724.50;  160.750;   44.750; 1019.250; 0.92432
1728.21;  152.750;   29.750;  974.250; 0.88530
1731.92;  144.750;   25.750;  931.250; 0.88134
1735.63;  142.750;   34.750;  925.250; 0.91621
1739.33;  149.750;   23.750;  909.250; 0.84682
1743.02;  136.750;   21.750;  865.250; 0.86539
1746.72;  140.750;   33.750;  872.250; 0.89412
1750.41;  150.750;   37.750;  865.250; 0.86469
1754.10;  133.750;   44.750;  846.250; 0.95451

