
Integration time [ms]:   3.780
Averaging Nr. [scans]: 1
Smoothing Nr. [pixels]: 0
Data measured with spectrometer [name]: 1911294U1
Wave   ;Sample   ;Dark     ;Reference;Absorbance
[nm]   ;[counts] ;[counts] ;[counts] ;[A.U]

 860.61;  105.750;   67.750;  833.250; 1.30416
 864.82;  114.750;   49.750;  998.250; 1.16412
 869.02;  130.750;   59.750; 1169.250; 1.19387
 873.23;  140.750;   54.750; 1288.250; 1.15664
 877.43;  140.750;   53.750; 1415.250; 1.19450
 881.63;  149.750;   54.750; 1540.250; 1.19415
 885.83;  176.750;   49.750; 1684.250; 1.10958
 890.03;  160.750;   28.750; 1796.250; 1.12679
 894.23;  169.750;   40.750; 1929.250; 1.16553
 898.42;  175.750;   37.750; 2071.250; 1.16837
 902.62;  189.750;   56.750; 2213.250; 1.20990
 906.81;  199.750;   35.750; 2337.250; 1.14717
 911.00;  193.750;   53.750; 2523.250; 1.24648
 915.19;  221.750;   45.750; 2712.250; 1.18043
 919.38;  244.750;   47.750; 2963.250; 1.17025
 923.57;  273.750;   53.750; 3292.250; 1.16792
 927.76;  282.750;   40.750; 3728.250; 1.18292
 931.94;  315.750;   39.750; 4163.250; 1.17436
 936.13;  337.750;   53.750; 4579.250; 1.20235
 940.31;  363.750;   50.750; 4873.250; 1.18773
 944.49;  387.750;   63.750; 5167.250; 1.19732
 948.67;  396.750;   49.750; 5411.250; 1.18896
 952.85;  398.750;   50.750; 5679.250; 1.20881
 957.03;  425.750;   47.750; 5965.250; 1.19465
 961.21;  444.750;   58.750; 6236.250; 1.20423
 965.38;  456.750;   44.750; 6471.250; 1.19308
 969.55;  451.750;   37.750; 6719.250; 1.20787
 973.73;  478.750;   56.750; 6971.250; 1.21445
 977.90;  493.750;   42.750; 7222.250; 1.20192
 982.06;  513.750;   44.750; 7469.250; 1.19949
 986.23;  509.750;   51.750; 7739.250; 1.22492
 990.40;  550.750;   61.750; 7985.250; 1.20961
 994.56;  552.750;   65.750; 8243.250; 1.22509
 998.72;  567.750;   58.750; 8450.250; 1.21712
1002.88;  599.750;   57.750; 8670.250; 1.20113
1007.04;  593.750;   52.750; 8879.250; 1.21259
1011.20;  610.750;   49.750; 9068.250; 1.20617
1015.36;  629.750;   45.750; 9257.250; 1.19792
1019.51;  646.750;   60.750; 9402.250; 1.20252
1023.67;  666.750;   69.750; 9574.250; 1.20195
1027.82;  669.750;   61.750; 9729.250; 1.20141
1031.97;  676.750;   55.750; 9851.250; 1.19794
1036.12;  677.750;   49.750;10022.250; 1.20084
1040.27;  688.750;   61.750;10174.250; 1.20759
1044.41;  712.750;   73.750;10320.250; 1.20507
1048.56;  723.750;   53.750;10468.250; 1.19156
1052.70;  725.750;   58.750;10629.250; 1.19997
1056.84;  747.750;   47.750;10798.250; 1.18633
1060.98;  747.750;   67.750;10996.250; 1.20605
1065.11;  759.750;   63.750;11181.250; 1.20340
1069.25;  776.750;   63.750;11391.250; 1.20104
1073.38;  799.750;   56.750;11632.250; 1.19255
1077.52;  810.750;   70.750;11862.250; 1.20234
1081.65;  822.750;   62.750;12105.250; 1.19990
1085.77;  828.750;   60.750;12352.250; 1.20424
1089.90;  851.750;   56.750;12603.250; 1.19816
1094.03;  864.750;   65.750;12857.250; 1.20437
1098.15;  888.750;   68.750;13146.250; 1.20271
1102.27;  908.750;   66.750;13436.250; 1.20080
1106.39;  923.750;   69.750;13733.250; 1.20410
1110.51;  930.750;   69.750;14055.250; 1.21067
1114.63;  941.750;   49.750;14464.250; 1.20843
1118.74;  985.750;   73.750;14874.250; 1.21028
1122.85;  991.750;   70.750;15167.250; 1.21462
1126.96;  974.750;   61.750;15350.250; 1.22389
1131.07;  988.750;   57.750;15457.250; 1.21856
1135.18;  977.750;   63.750;15545.250; 1.22887
1139.29;  943.750;   45.750;15604.250; 1.23869
1143.39;  928.750;   62.750;15613.250; 1.25423
1147.49;  910.750;   71.750;15592.250; 1.26714
1151.59;  885.750;   71.750;15618.250; 1.28101
1155.69;  875.750;   64.750;15618.250; 1.28281
1159.78;  866.750;   61.750;15619.250; 1.28614
1163.88;  865.750;   66.750;15654.250; 1.29023
1167.97;  848.750;   60.750;15657.250; 1.29650
1172.06;  835.750;   60.750;15668.250; 1.30403
1176.15;  818.750;   53.750;15670.250; 1.30992
1180.23;  852.750;   59.750;15679.250; 1.29439
1184.32;  811.750;   50.750;15690.250; 1.31284
1188.40;  829.750;   57.750;15712.250; 1.30702
1192.48;  822.750;   55.750;15725.250; 1.31026
1196.56;  830.750;   53.750;15754.250; 1.30549
1200.64;  831.750;   72.750;15783.250; 1.31595
1204.71;  824.750;   50.750;15806.250; 1.30869
1208.78;  843.750;   69.750;15849.250; 1.30935
1212.85;  836.750;   54.750;15854.250; 1.30544
1216.92;  810.750;   37.750;15840.250; 1.31055
1220.99;  856.750;   49.750;15897.250; 1.29309
1225.05;  847.750;   60.750;15920.250; 1.30431
1229.11;  856.750;   53.750;15924.250; 1.29588
1233.17;  845.750;   58.750;15926.250; 1.30453
1237.23;  874.750;   49.750;15943.250; 1.28477
1241.29;  855.750;   51.750;15960.250; 1.29637
1245.34;  878.750;   79.750;16029.250; 1.30020
1249.39;  857.750;   55.750;16081.250; 1.30064
1253.44;  869.750;   36.750;16122.250; 1.28579
1257.49;  878.750;   73.750;16225.250; 1.30242
1261.53;  884.750;   40.750;16273.250; 1.28404
1265.58;  882.750;   46.750;16338.250; 1.28975
1269.62;  881.750;   46.750;16412.250; 1.29224
1273.65;  889.750;   55.750;16472.250; 1.29411
1277.69;  894.750;   53.750;16552.250; 1.29265
1281.72;  887.750;   65.750;16612.250; 1.30383
1285.76;  872.750;   66.750;16662.250; 1.31366
1289.79;  879.750;   56.750;16697.250; 1.30577
1293.81;  875.750;   44.750;16713.250; 1.30230
1297.84;  868.750;   49.750;16765.250; 1.30984
1301.86;  862.750;   43.750;16807.250; 1.31108
1305.88;  851.750;   58.750;16824.250; 1.32514
1309.90;  862.750;   49.750;16842.250; 1.31502
1313.92;  838.750;   55.750;16828.250; 1.33084
1317.93;  819.750;   65.750;16838.250; 1.34723
1321.94;  796.750;   46.750;16825.250; 1.34969
1325.95;  788.750;   64.750;16797.250; 1.36382
1329.96;  786.750;   63.750;16802.250; 1.36458
1333.96;  758.750;   52.750;16773.250; 1.37444
1337.96;  718.750;   63.750;16776.250; 1.40680
1341.96;  711.750;   46.750;16748.250; 1.39993
1345.96;  685.750;   59.750;16622.250; 1.42255
1349.95;  648.750;   42.750;16410.250; 1.43151
1353.95;  634.750;   67.750;16154.250; 1.45288
1357.94;  606.750;   50.750;15843.250; 1.45338
1361.92;  592.750;   50.750;15571.250; 1.45691
1365.91;  557.750;   46.750;15308.250; 1.47518
1369.89;  535.750;   50.750;15042.250; 1.49010
1373.87;  476.750;   48.750;14460.250; 1.52727
1377.85;  444.750;   60.750;13607.250; 1.54750
1381.82;  373.750;   48.750;12795.250; 1.59351
1385.80;  345.750;   50.750;12441.250; 1.62327
1389.77;  288.750;   54.750;12376.250; 1.72145
1393.74;  245.750;   63.750;12523.250; 1.83543
1397.70;  215.750;   57.750;12861.250; 1.90867
1401.66;  189.750;   57.750;13177.250; 1.99734
1405.62;  165.750;   34.750;13448.250; 2.01027
1409.58;  139.750;   50.750;13653.250; 2.18423
1413.54;  127.750;   50.750;13787.250; 2.25139
1417.49;   96.750;   27.750;13838.250; 2.30136
1421.44;  127.750;   63.750;13894.250; 2.33466
1425.39;  107.750;   54.750;13879.250; 2.41637
1429.33;  108.750;   64.750;13864.250; 2.49641
1433.27;  110.750;   54.750;13809.250; 2.39026
1437.21;   95.750;   48.750;13776.250; 2.46549
1441.15;  108.750;   52.750;13748.250; 2.38839
1445.09;   90.750;   60.750;13691.250; 2.65739
1449.02;   93.750;   57.750;13611.250; 2.57575
1452.95;   98.750;   52.750;13536.250; 2.46704
1456.87;   92.750;   53.750;13439.250; 2.53557
1460.80;   81.750;   43.750;13345.250; 2.54412
1464.72;   92.750;   59.750;13253.250; 2.60185
1468.64;   91.750;   43.750;13131.250; 2.43562
1472.55;  116.750;   63.750;13051.250; 2.38925
1476.47;   85.750;   43.750;12969.250; 2.48820
1480.38;  105.750;   38.750;12870.250; 2.28220
1484.28;  103.750;   54.750;12750.250; 2.41345
1488.19;  100.750;   50.750;12663.250; 2.40183
1492.09;   93.750;   28.750;12533.250; 2.28415
1495.99;   97.750;   58.750;12434.250; 2.50150
1499.89;   99.750;   46.750;12320.250; 2.36469
1503.78;  108.750;   48.750;12228.250; 2.30748
1507.67;  105.750;   52.750;12113.250; 2.35709
1511.56;  109.750;   33.750;11982.250; 2.19650
1515.44;  117.750;   50.750;11884.250; 2.24704
1519.33;  124.750;   48.750;11757.250; 2.18769
1523.21;  145.750;   35.750;11649.250; 2.02357
1527.08;  129.750;   57.750;11506.250; 2.20142
1530.96;  133.750;   39.750;11368.250; 2.08104
1534.83;  151.750;   52.750;11249.250; 2.05345
1538.70;  147.750;   57.750;11082.250; 2.08812
1542.56;  135.750;   28.750;10958.250; 2.00922
1546.42;  157.750;   39.750;10836.250; 1.96140
1550.28;  159.750;   58.750;10683.250; 2.02199
1554.14;  142.750;   39.750;10510.250; 2.00713
1557.99;  156.750;   41.750;10388.250; 1.95410
1561.84;  164.750;   33.750;10234.250; 1.89135
1565.69;  155.750;   40.750;10095.250; 1.94166
1569.54;  158.750;   24.750; 9939.250; 1.86917
1573.38;  160.750;   40.750; 9804.250; 1.91042
1577.22;  161.750;   31.750; 9649.250; 1.86912
1581.05;  171.750;   49.750; 9522.250; 1.89010
1584.89;  190.750;   45.750; 9369.250; 1.80821
1588.72;  172.750;   41.750; 9215.250; 1.84526
1592.54;  177.750;   35.750; 9061.250; 1.80318
1596.37;  171.750;   22.750; 8908.250; 1.77550
1600.19;  180.750;   43.750; 8774.250; 1.80432
1604.01;  180.750;   33.750; 8610.250; 1.76599
1607.82;  181.750;   31.750; 8473.250; 1.75033
1611.63;  161.750;   22.750; 8316.250; 1.77572
1615.44;  184.750;   26.750; 8167.250; 1.71199
1619.25;  155.750;   34.750; 7998.250; 1.81832
1623.05;  155.750;   13.750; 7822.250; 1.74028
1626.85;  167.750;   26.750; 7668.250; 1.73396
1630.64;  191.750;   42.750; 7511.250; 1.70005
1634.44;  173.750;   26.750; 7307.250; 1.69484
1638.23;  164.750;   18.750; 7114.250; 1.68663
1642.01;  164.750;   39.750; 6938.250; 1.74184
1645.80;  174.750;   42.750; 6743.250; 1.70553
1649.58;  172.750;   38.750; 6531.250; 1.68531
1653.35;  171.750;   44.750; 6309.250; 1.69308
1657.13;  141.750;   36.750; 6064.250; 1.75895
1660.90;  151.750;   34.750; 5808.250; 1.69325
1664.67;  148.750;   28.750; 5491.250; 1.65821
1668.43;  147.750;   24.750; 5119.250; 1.61720
1672.19;  128.750;   35.750; 4656.250; 1.69621
1675.95;  119.750;   31.750; 4113.250; 1.66634
1679.70;  100.750;   46.750; 3563.250; 1.81372
1683.46;  113.750;   23.750; 3047.250; 1.52627
1687.20;  100.750;   39.750; 2617.250; 1.62587
1690.95;   87.750;   36.750; 2243.250; 1.63613
1694.69;   92.750;   56.750; 1964.250; 1.72416
1698.43;   69.750;   22.750; 1699.250; 1.55231
1702.16;   95.750;   44.750; 1533.250; 1.46518
1705.89;   87.750;   30.750; 1372.250; 1.37172
1709.62;   66.750;   25.750; 1277.250; 1.48465
1713.35;   89.750;   17.750; 1187.250; 1.21067
1717.07;   75.750;   42.750; 1123.250; 1.51511
1720.79;   90.750;   41.750; 1064.250; 1.31947
1724.50;   78.750;   44.750; 1019.250; 1.45730
1728.21;   78.750;   29.750;  974.250; 1.28501
1731.92;   65.750;   25.750;  931.250; 1.35483
1735.63;   82.750;   34.750;  925.250; 1.26839
1739.33;   86.750;   23.750;  909.250; 1.14785
1743.02;   70.750;   21.750;  865.250; 1.23589
1746.72;   74.750;   33.750;  872.250; 1.31072
1750.41;   95.750;   37.750;  865.250; 1.15434
1754.10;   90.750;   44.750;  846.250; 1.24115

