
Integration time [ms]:   3.780
Averaging Nr. [scans]: 1
Smoothing Nr. [pixels]: 0
Data measured with spectrometer [name]: 1911294U1
Wave   ;Sample   ;Dark     ;Reference;Absorbance
[nm]   ;[counts] ;[counts] ;[counts] ;[A.U]

 860.61;   57.250;   67.750;  833.250; 5.00000
 864.82;   53.250;   49.750;  998.250; 2.43297
 869.02;   69.250;   59.750; 1169.250; 2.06740
 873.23;   65.250;   54.750; 1288.250; 2.06995
 877.43;   62.250;   53.750; 1415.250; 2.20460
 881.63;   41.250;   54.750; 1540.250; 5.00000
 885.83;   45.250;   49.750; 1684.250; 5.00000
 890.03;   37.250;   28.750; 1796.250; 2.31794
 894.23;   29.250;   40.750; 1929.250; 5.00000
 898.42;   41.250;   37.750; 2071.250; 2.76418
 902.62;   53.250;   56.750; 2213.250; 5.00000
 906.81;   37.250;   35.750; 2337.250; 3.18592
 911.00;   53.250;   53.750; 2523.250; 5.00000
 915.19;   39.250;   45.750; 2712.250; 5.00000
 919.38;   57.250;   47.750; 2963.250; 2.48699
 923.57;   49.250;   53.750; 3292.250; 5.00000
 927.76;   49.250;   40.750; 3728.250; 2.63731
 931.94;   61.250;   39.750; 4163.250; 2.28283
 936.13;   48.250;   53.750; 4579.250; 5.00000
 940.31;   57.250;   50.750; 4873.250; 2.87036
 944.49;   59.250;   63.750; 5167.250; 5.00000
 948.67;   53.250;   49.750; 5411.250; 3.18522
 952.85;   55.250;   50.750; 5679.250; 3.09718
 957.03;   56.250;   47.750; 5965.250; 2.84272
 961.21;   53.250;   58.750; 6236.250; 5.00000
 965.38;   52.250;   44.750; 6471.250; 2.93291
 969.55;   39.250;   37.750; 6719.250; 3.64878
 973.73;   52.250;   56.750; 6971.250; 5.00000
 977.90;   56.250;   42.750; 7222.250; 2.72576
 982.06;   55.250;   44.750; 7469.250; 2.84948
 986.23;   44.250;   51.750; 7739.250; 5.00000
 990.40;   64.250;   61.750; 7985.250; 3.50098
 994.56;   60.250;   65.750; 8243.250; 5.00000
 998.72;   40.250;   58.750; 8450.250; 5.00000
1002.88;   52.250;   57.750; 8670.250; 5.00000
1007.04;   46.250;   52.750; 8879.250; 5.00000
1011.20;   44.250;   49.750; 9068.250; 5.00000
1015.36;   56.250;   45.750; 9257.250; 2.94314
1019.51;   62.250;   60.750; 9402.250; 3.79433
1023.67;   56.250;   69.750; 9574.250; 5.00000
1027.82;   49.250;   61.750; 9729.250; 5.00000
1031.97;   52.250;   55.750; 9851.250; 5.00000
1036.12;   58.250;   49.750;10022.250; 3.06939
1040.27;   49.250;   61.750;10174.250; 5.00000
1044.41;   70.250;   73.750;10320.250; 5.00000
1048.56;   55.250;   53.750;10468.250; 3.84155
1052.70;   68.250;   58.750;10629.250; 3.04637
1056.84;   47.250;   47.750;10798.250; 5.00000
1060.98;   59.250;   67.750;10996.250; 5.00000
1065.11;   49.250;   63.750;11181.250; 5.00000
1069.25;   52.250;   63.750;11391.250; 5.00000
1073.38;   48.250;   56.750;11632.250; 5.00000
1077.52;   64.250;   70.750;11862.250; 5.00000
1081.65;   64.250;   62.750;12105.250; 3.90463
1085.77;   55.250;   60.750;12352.250; 5.00000
1089.90;   64.250;   56.750;12603.250; 3.22346
1094.03;   60.250;   65.750;12857.250; 5.00000
1098.15;   42.250;   68.750;13146.250; 5.00000
1102.27;   40.250;   66.750;13436.250; 5.00000
1106.39;   60.250;   69.750;13733.250; 5.00000
1110.51;   64.250;   69.750;14055.250; 5.00000
1114.63;   36.250;   49.750;14464.250; 5.00000
1118.74;   53.250;   73.750;14874.250; 5.00000
1122.85;   50.250;   70.750;15167.250; 5.00000
1126.96;   50.250;   61.750;15350.250; 5.00000
1131.07;   48.250;   57.750;15457.250; 5.00000
1135.18;   58.250;   63.750;15545.250; 5.00000
1139.29;   49.250;   45.750;15604.250; 3.64790
1143.39;   57.250;   62.750;15613.250; 5.00000
1147.49;   45.250;   71.750;15592.250; 5.00000
1151.59;   52.250;   71.750;15618.250; 5.00000
1155.69;   53.250;   64.750;15618.250; 5.00000
1159.78;   59.250;   61.750;15619.250; 5.00000
1163.88;   75.250;   66.750;15654.250; 3.26336
1167.97;   53.250;   60.750;15657.250; 5.00000
1172.06;   48.250;   60.750;15668.250; 5.00000
1176.15;   51.250;   53.750;15670.250; 5.00000
1180.23;   48.250;   59.750;15679.250; 5.00000
1184.32;   32.250;   50.750;15690.250; 5.00000
1188.40;   57.250;   57.750;15712.250; 5.00000
1192.48;   56.250;   55.750;15725.250; 4.49609
1196.56;   56.250;   53.750;15754.250; 3.79797
1200.64;   58.250;   72.750;15783.250; 5.00000
1204.71;   60.250;   50.750;15806.250; 3.21971
1208.78;   73.250;   69.750;15849.250; 3.65403
1212.85;   54.250;   54.750;15854.250; 5.00000
1216.92;   46.250;   37.750;15840.250; 3.26931
1220.99;   53.250;   49.750;15897.250; 3.65589
1225.05;   64.250;   60.750;15920.250; 3.65622
1229.11;   51.250;   53.750;15924.250; 5.00000
1233.17;   53.250;   58.750;15926.250; 5.00000
1237.23;   51.250;   49.750;15943.250; 4.02513
1241.29;   49.250;   51.750;15960.250; 5.00000
1245.34;   64.250;   79.750;16029.250; 5.00000
1249.39;   50.250;   55.750;16081.250; 5.00000
1253.44;   63.250;   36.750;16122.250; 2.78319
1257.49;   64.250;   73.750;16225.250; 5.00000
1261.53;   59.250;   40.750;16273.250; 2.94321
1265.58;   52.250;   46.750;16338.250; 3.47160
1269.62;   53.250;   46.750;16412.250; 3.40102
1273.65;   60.250;   55.750;16472.250; 3.56207
1277.69;   58.250;   53.750;16552.250; 3.56423
1281.72;   60.250;   65.750;16612.250; 5.00000
1285.76;   56.250;   66.750;16662.250; 5.00000
1289.79;   55.250;   56.750;16697.250; 5.00000
1293.81;   52.250;   44.750;16713.250; 3.34684
1297.84;   49.250;   49.750;16765.250; 5.00000
1301.86;   56.250;   43.750;16807.250; 3.12745
1305.88;   58.250;   58.750;16824.250; 5.00000
1309.90;   56.250;   49.750;16842.250; 3.41220
1313.92;   66.250;   55.750;16828.250; 3.20341
1317.93;   61.250;   65.750;16838.250; 5.00000
1321.94;   56.250;   46.750;16825.250; 3.24703
1325.95;   55.250;   64.750;16797.250; 5.00000
1329.96;   78.250;   63.750;16802.250; 3.06235
1333.96;   57.250;   52.750;16773.250; 3.57004
1337.96;   45.250;   63.750;16776.250; 5.00000
1341.96;   50.250;   46.750;16748.250; 3.67869
1345.96;   48.250;   59.750;16622.250; 5.00000
1349.95;   49.250;   42.750;16410.250; 3.40107
1353.95;   55.250;   67.750;16154.250; 5.00000
1357.94;   53.250;   50.750;15843.250; 3.80051
1361.92;   47.250;   50.750;15571.250; 5.00000
1365.91;   50.250;   46.750;15308.250; 3.63953
1369.89;   53.250;   50.750;15042.250; 3.77791
1373.87;   48.250;   48.750;14460.250; 5.00000
1377.85;   53.250;   60.750;13607.250; 5.00000
1381.82;   52.250;   48.750;12795.250; 3.56132
1385.80;   69.250;   50.750;12441.250; 2.82592
1389.77;   43.250;   54.750;12376.250; 5.00000
1393.74;   58.250;   63.750;12523.250; 5.00000
1397.70;   65.250;   57.750;12861.250; 3.23227
1401.66;   38.250;   57.750;13177.250; 5.00000
1405.62;   39.250;   34.750;13448.250; 3.47433
1409.58;   48.250;   50.750;13653.250; 5.00000
1413.54;   33.250;   50.750;13787.250; 5.00000
1417.49;   35.250;   27.750;13838.250; 3.26515
1421.44;   61.250;   63.750;13894.250; 5.00000
1425.39;   58.250;   54.750;13879.250; 3.59658
1429.33;   56.250;   64.750;13864.250; 5.00000
1433.27;   61.250;   54.750;13809.250; 3.32553
1437.21;   52.250;   48.750;13776.250; 3.59352
1441.15;   53.250;   52.750;13748.250; 4.43761
1445.09;   53.250;   60.750;13691.250; 5.00000
1449.02;   54.250;   57.750;13611.250; 5.00000
1452.95;   49.250;   52.750;13536.250; 5.00000
1456.87;   44.250;   53.750;13439.250; 5.00000
1460.80;   51.250;   43.750;13345.250; 3.24884
1464.72;   47.250;   59.750;13253.250; 5.00000
1468.64;   41.250;   43.750;13131.250; 5.00000
1472.55;   57.250;   63.750;13051.250; 5.00000
1476.47;   62.250;   43.750;12969.250; 2.84428
1480.38;   50.250;   38.750;12870.250; 3.04758
1484.28;   60.250;   54.750;12750.250; 3.36329
1488.19;   53.250;   50.750;12663.250; 3.70286
1492.09;   37.250;   28.750;12533.250; 3.16765
1495.99;   57.250;   58.750;12434.250; 5.00000
1499.89;   47.250;   46.750;12320.250; 4.39000
1503.78;   52.250;   48.750;12228.250; 3.54156
1507.67;   41.250;   52.750;12113.250; 5.00000
1511.56;   39.250;   33.750;11982.250; 3.33695
1515.44;   47.250;   50.750;11884.250; 5.00000
1519.33;   60.250;   48.750;11757.250; 3.00780
1523.21;   46.250;   35.750;11649.250; 3.04377
1527.08;   53.250;   57.750;11506.250; 5.00000
1530.96;   40.250;   39.750;11368.250; 4.35520
1534.83;   58.250;   52.750;11249.250; 3.30872
1538.70;   40.250;   57.750;11082.250; 5.00000
1542.56;   45.250;   28.750;10958.250; 2.82112
1546.42;   45.250;   39.750;10836.250; 3.29292
1550.28;   54.250;   58.750;10683.250; 5.00000
1554.14;   37.250;   39.750;10510.250; 5.00000
1557.99;   54.250;   41.750;10388.250; 2.91788
1561.84;   41.250;   33.750;10234.250; 3.13356
1565.69;   47.250;   40.750;10095.250; 3.18945
1569.54;   33.250;   24.750; 9939.250; 3.06685
1573.38;   43.250;   40.750; 9804.250; 3.59167
1577.22;   27.250;   31.750; 9649.250; 5.00000
1581.05;   49.250;   49.750; 9522.250; 5.00000
1584.89;   50.250;   45.750; 9369.250; 3.31637
1588.72;   53.250;   41.750; 9215.250; 2.90184
1592.54;   24.250;   35.750; 9061.250; 5.00000
1596.37;   44.250;   22.750; 8908.250; 2.61624
1600.19;   35.250;   43.750; 8774.250; 5.00000
1604.01;   25.250;   33.750; 8610.250; 5.00000
1607.82;   29.250;   31.750; 8473.250; 5.00000
1611.63;   18.250;   22.750; 8316.250; 5.00000
1615.44;   48.250;   26.750; 8167.250; 2.57821
1619.25;   32.250;   34.750; 7998.250; 5.00000
1623.05;   21.250;   13.750; 7822.250; 3.01751
1626.85;   53.250;   26.750; 7668.250; 2.45993
1630.64;   31.250;   42.750; 7511.250; 5.00000
1634.44;   30.250;   26.750; 7307.250; 3.31809
1638.23;   28.250;   18.750; 7114.250; 2.87326
1642.01;   39.250;   39.750; 6938.250; 5.00000
1645.80;   51.250;   42.750; 6743.250; 2.89669
1649.58;   42.250;   38.750; 6531.250; 3.26834
1653.35;   43.250;   44.750; 6309.250; 5.00000
1657.13;   22.250;   36.750; 6064.250; 5.00000
1660.90;   32.250;   34.750; 5808.250; 5.00000
1664.67;   36.250;   28.750; 5491.250; 2.86233
1668.43;   41.250;   24.750; 5119.250; 2.48962
1672.19;   38.250;   35.750; 4656.250; 3.26675
1675.95;   41.250;   31.750; 4113.250; 2.63310
1679.70;   42.250;   46.750; 3563.250; 5.00000
1683.46;   30.250;   23.750; 3047.250; 2.66760
1687.20;   53.250;   39.750; 2617.250; 2.28086
1690.95;   37.250;   36.750; 2243.250; 3.64473
1694.69;   37.250;   56.750; 1964.250; 5.00000
1698.43;   33.250;   22.750; 1699.250; 2.20321
1702.16;   49.250;   44.750; 1533.250; 2.51954
1705.89;   23.250;   30.750; 1372.250; 5.00000
1709.62;   17.250;   25.750; 1277.250; 5.00000
1713.35;   31.250;   17.750; 1187.250; 1.93767
1717.07;   39.250;   42.750; 1123.250; 5.00000
1720.79;   37.250;   41.750; 1064.250; 5.00000
1724.50;   44.250;   44.750; 1019.250; 5.00000
1728.21;   37.250;   29.750;  974.250; 2.10014
1731.92;   38.250;   25.750;  931.250; 1.85998
1735.63;   20.250;   34.750;  925.250; 5.00000
1739.33;   53.250;   23.750;  909.250; 1.47737
1743.02;   26.250;   21.750;  865.250; 2.27287
1746.72;   31.250;   33.750;  872.250; 5.00000
1750.41;   47.250;   37.750;  865.250; 1.94004
1754.10;   34.250;   44.750;  846.250; 5.00000

