
Integration time [ms]:   3.780
Averaging Nr. [scans]: 1
Smoothing Nr. [pixels]: 0
Data measured with spectrometer [name]: 1911294U1
Wave   ;Sample   ;Dark     ;Reference;Absorbance
[nm]   ;[counts] ;[counts] ;[counts] ;[A.U]

 860.61;  116.750;   67.750;  833.250; 1.19375
 864.82;  127.750;   49.750;  998.250; 1.08494
 869.02;  132.750;   59.750; 1169.250; 1.18180
 873.23;  131.750;   54.750; 1288.250; 1.20465
 877.43;  147.750;   53.750; 1415.250; 1.16089
 881.63;  160.750;   54.750; 1540.250; 1.14657
 885.83;  152.750;   49.750; 1684.250; 1.20055
 890.03;  152.750;   28.750; 1796.250; 1.15394
 894.23;  166.750;   40.750; 1929.250; 1.17575
 898.42;  174.750;   37.750; 2071.250; 1.17152
 902.62;  180.750;   56.750; 2213.250; 1.24033
 906.81;  200.750;   35.750; 2337.250; 1.14453
 911.00;  202.750;   53.750; 2523.250; 1.21942
 915.19;  215.750;   45.750; 2712.250; 1.19549
 919.38;  241.750;   47.750; 2963.250; 1.17691
 923.57;  262.750;   53.750; 3292.250; 1.19020
 927.76;  286.750;   40.750; 3728.250; 1.17580
 931.94;  323.750;   39.750; 4163.250; 1.16195
 936.13;  338.750;   53.750; 4579.250; 1.20082
 940.31;  355.750;   50.750; 4873.250; 1.19897
 944.49;  381.750;   63.750; 5167.250; 1.20544
 948.67;  387.750;   49.750; 5411.250; 1.20037
 952.85;  408.750;   50.750; 5679.250; 1.19651
 957.03;  413.750;   47.750; 5965.250; 1.20866
 961.21;  434.750;   58.750; 6236.250; 1.21562
 965.38;  439.750;   44.750; 6471.250; 1.21138
 969.55;  444.750;   37.750; 6719.250; 1.21528
 973.73;  460.750;   56.750; 6971.250; 1.23338
 977.90;  487.750;   42.750; 7222.250; 1.20773
 982.06;  507.750;   44.750; 7469.250; 1.20509
 986.23;  506.750;   51.750; 7739.250; 1.22777
 990.40;  534.750;   61.750; 7985.250; 1.22406
 994.56;  536.750;   65.750; 8243.250; 1.23960
 998.72;  578.750;   58.750; 8450.250; 1.20784
1002.88;  576.750;   57.750; 8670.250; 1.21996
1007.04;  583.750;   52.750; 8879.250; 1.22069
1011.20;  609.750;   49.750; 9068.250; 1.20695
1015.36;  628.750;   45.750; 9257.250; 1.19866
1019.51;  613.750;   60.750; 9402.250; 1.22769
1023.67;  638.750;   69.750; 9574.250; 1.22282
1027.82;  648.750;   61.750; 9729.250; 1.21668
1031.97;  661.750;   55.750; 9851.250; 1.20855
1036.12;  650.750;   49.750;10022.250; 1.21993
1040.27;  677.750;   61.750;10174.250; 1.21528
1044.41;  695.750;   73.750;10320.250; 1.21679
1048.56;  704.750;   53.750;10468.250; 1.20406
1052.70;  709.750;   58.750;10629.250; 1.21051
1056.84;  711.750;   47.750;10798.250; 1.20926
1060.98;  737.750;   67.750;10996.250; 1.21249
1065.11;  750.750;   63.750;11181.250; 1.20905
1069.25;  752.750;   63.750;11391.250; 1.21591
1073.38;  783.750;   56.750;11632.250; 1.20201
1077.52;  802.750;   70.750;11862.250; 1.20706
1081.65;  789.750;   62.750;12105.250; 1.21918
1085.77;  815.750;   60.750;12352.250; 1.21166
1089.90;  832.750;   56.750;12603.250; 1.20866
1094.03;  846.750;   65.750;12857.250; 1.21427
1098.15;  867.750;   68.750;13146.250; 1.21398
1102.27;  871.750;   66.750;13436.250; 1.22032
1106.39;  892.750;   69.750;13733.250; 1.22016
1110.51;  902.750;   69.750;14055.250; 1.22503
1114.63;  915.750;   49.750;14464.250; 1.22128
1118.74;  952.750;   73.750;14874.250; 1.22629
1122.85;  956.750;   70.750;15167.250; 1.23144
1126.96;  964.750;   61.750;15350.250; 1.22868
1131.07;  953.750;   57.750;15457.250; 1.23520
1135.18;  950.750;   63.750;15545.250; 1.24189
1139.29;  918.750;   45.750;15604.250; 1.25095
1143.39;  900.750;   62.750;15613.250; 1.26850
1147.49;  884.750;   71.750;15592.250; 1.28082
1151.59;  869.750;   71.750;15618.250; 1.28963
1155.69;  847.750;   64.750;15618.250; 1.29807
1159.78;  839.750;   61.750;15619.250; 1.30096
1163.88;  838.750;   66.750;15654.250; 1.30516
1167.97;  812.750;   60.750;15657.250; 1.31681
1172.06;  801.750;   60.750;15668.250; 1.32352
1176.15;  812.750;   53.750;15670.250; 1.31334
1180.23;  810.750;   59.750;15679.250; 1.31803
1184.32;  775.750;   50.750;15690.250; 1.33388
1188.40;  792.750;   57.750;15712.250; 1.32835
1192.48;  787.750;   55.750;15725.250; 1.33054
1196.56;  806.750;   53.750;15754.250; 1.31912
1200.64;  813.750;   72.750;15783.250; 1.32637
1204.71;  788.750;   50.750;15806.250; 1.32938
1208.78;  820.750;   69.750;15849.250; 1.32245
1212.85;  814.750;   54.750;15854.250; 1.31783
1216.92;  803.750;   37.750;15840.250; 1.31450
1220.99;  825.750;   49.750;15897.250; 1.31010
1225.05;  822.750;   60.750;15920.250; 1.31833
1229.11;  822.750;   53.750;15924.250; 1.31466
1233.17;  821.750;   58.750;15926.250; 1.31798
1237.23;  838.750;   49.750;15943.250; 1.30414
1241.29;  827.750;   51.750;15960.250; 1.31177
1245.34;  851.750;   79.750;16029.250; 1.31513
1249.39;  843.750;   55.750;16081.250; 1.30829
1253.44;  831.750;   36.750;16122.250; 1.30607
1257.49;  847.750;   73.750;16225.250; 1.31947
1261.53;  850.750;   40.750;16273.250; 1.30190
1265.58;  858.750;   46.750;16338.250; 1.30241
1269.62;  854.750;   46.750;16412.250; 1.30652
1273.65;  862.750;   55.750;16472.250; 1.30841
1277.69;  856.750;   53.750;16552.250; 1.31273
1281.72;  861.750;   65.750;16612.250; 1.31779
1285.76;  857.750;   66.750;16662.250; 1.32181
1289.79;  857.750;   56.750;16697.250; 1.31753
1293.81;  839.750;   44.750;16713.250; 1.32153
1297.84;  850.750;   49.750;16765.250; 1.31949
1301.86;  839.750;   43.750;16807.250; 1.32345
1305.88;  827.750;   58.750;16824.250; 1.33849
1309.90;  809.750;   49.750;16842.250; 1.34430
1313.92;  796.750;   55.750;16828.250; 1.35478
1317.93;  797.750;   65.750;16838.250; 1.36009
1321.94;  756.750;   46.750;16825.250; 1.37349
1325.95;  756.750;   64.750;16797.250; 1.38345
1329.96;  753.750;   63.750;16802.250; 1.38487
1333.96;  726.750;   52.750;16773.250; 1.39459
1337.96;  697.750;   63.750;16776.250; 1.42095
1341.96;  676.750;   46.750;16748.250; 1.42341
1345.96;  660.750;   59.750;16622.250; 1.44025
1349.95;  625.750;   42.750;16410.250; 1.44831
1353.95;  609.750;   67.750;16154.250; 1.47246
1357.94;  585.750;   50.750;15843.250; 1.47010
1361.92;  548.750;   50.750;15571.250; 1.49368
1365.91;  546.750;   46.750;15308.250; 1.48463
1369.89;  499.750;   50.750;15042.250; 1.52360
1373.87;  459.750;   48.750;14460.250; 1.54487
1377.85;  417.750;   60.750;13607.250; 1.57916
1381.82;  366.750;   48.750;12795.250; 1.60296
1385.80;  315.750;   50.750;12441.250; 1.66984
1389.77;  270.750;   54.750;12376.250; 1.75621
1393.74;  228.750;   63.750;12523.250; 1.87802
1397.70;  211.750;   57.750;12861.250; 1.91981
1401.66;  155.750;   57.750;13177.250; 2.12669
1405.62;  146.750;   34.750;13448.250; 2.07832
1409.58;  133.750;   50.750;13653.250; 2.21454
1413.54;  128.750;   50.750;13787.250; 2.24578
1417.49;  104.750;   27.750;13838.250; 2.25372
1421.44;  102.750;   63.750;13894.250; 2.54977
1425.39;  113.750;   54.750;13879.250; 2.36980
1429.33;  101.750;   64.750;13864.250; 2.57166
1433.27;   90.750;   54.750;13809.250; 2.58214
1437.21;   92.750;   48.750;13776.250; 2.49414
1441.15;  101.750;   52.750;13748.250; 2.44638
1445.09;  117.750;   60.750;13691.250; 2.37864
1449.02;   93.750;   57.750;13611.250; 2.57575
1452.95;   95.750;   52.750;13536.250; 2.49633
1456.87;   86.750;   53.750;13439.250; 2.60812
1460.80;   79.750;   43.750;13345.250; 2.56760
1464.72;  103.750;   59.750;13253.250; 2.47691
1468.64;   85.750;   43.750;13131.250; 2.49361
1472.55;   84.750;   63.750;13051.250; 2.79131
1476.47;   99.750;   43.750;12969.250; 2.36326
1480.38;  102.750;   38.750;12870.250; 2.30210
1484.28;  108.750;   54.750;12750.250; 2.37126
1488.19;   93.750;   50.750;12663.250; 2.46733
1492.09;   78.750;   28.750;12533.250; 2.39810
1495.99;  110.750;   58.750;12434.250; 2.37656
1499.89;  103.750;   46.750;12320.250; 2.33309
1503.78;  102.750;   48.750;12228.250; 2.35324
1507.67;  111.750;   52.750;12113.250; 2.31051
1511.56;  101.750;   33.750;11982.250; 2.24480
1515.44;  109.750;   50.750;11884.250; 2.30226
1519.33;  120.750;   48.750;11757.250; 2.21117
1523.21;  117.750;   35.750;11649.250; 2.15115
1527.08;  132.750;   57.750;11506.250; 2.18369
1530.96;  127.750;   39.750;11368.250; 2.10969
1534.83;  137.750;   52.750;11249.250; 2.11966
1538.70;  138.750;   57.750;11082.250; 2.13387
1542.56;  127.750;   28.750;10958.250; 2.04297
1546.42;  142.750;   39.750;10836.250; 2.02045
1550.28;  152.750;   58.750;10683.250; 2.05318
1554.14;  135.750;   39.750;10510.250; 2.03770
1557.99;  155.750;   41.750;10388.250; 1.95789
1561.84;  152.750;   33.750;10234.250; 1.93307
1565.69;  143.750;   40.750;10095.250; 1.98952
1569.54;  160.750;   24.750; 9939.250; 1.86273
1573.38;  154.750;   40.750; 9804.250; 1.93270
1577.22;  160.750;   31.750; 9649.250; 1.87247
1581.05;  154.750;   49.750; 9522.250; 1.95528
1584.89;  170.750;   45.750; 9369.250; 1.87267
1588.72;  172.750;   41.750; 9215.250; 1.84526
1592.54;  165.750;   35.750; 9061.250; 1.84153
1596.37;  174.750;   22.750; 8908.250; 1.76684
1600.19;  167.750;   43.750; 8774.250; 1.84762
1604.01;  159.750;   33.750; 8610.250; 1.83294
1607.82;  172.750;   31.750; 8473.250; 1.77720
1611.63;  157.750;   22.750; 8316.250; 1.78840
1615.44;  171.750;   26.750; 8167.250; 1.74928
1619.25;  152.750;   34.750; 7998.250; 1.82922
1623.05;  178.750;   13.750; 7822.250; 1.67508
1626.85;  160.750;   26.750; 7668.250; 1.75607
1630.64;  175.750;   42.750; 7511.250; 1.74938
1634.44;  158.750;   26.750; 7307.250; 1.74159
1638.23;  152.750;   18.750; 7114.250; 1.72388
1642.01;  165.750;   39.750; 6938.250; 1.73838
1645.80;  164.750;   42.750; 6743.250; 1.73975
1649.58;  160.750;   38.750; 6531.250; 1.72605
1653.35;  163.750;   44.750; 6309.250; 1.72134
1657.13;  150.750;   36.750; 6064.250; 1.72323
1660.90;  147.750;   34.750; 5808.250; 1.70836
1664.67;  138.750;   28.750; 5491.250; 1.69600
1668.43;  132.750;   24.750; 5119.250; 1.67368
1672.19;  120.750;   35.750; 4656.250; 1.73527
1675.95;  123.750;   31.750; 4113.250; 1.64703
1679.70;  112.750;   46.750; 3563.250; 1.72657
1683.46;  107.750;   23.750; 3047.250; 1.55623
1687.20;   98.750;   39.750; 2617.250; 1.64035
1690.95;   98.750;   36.750; 2243.250; 1.55131
1694.69;   86.750;   56.750; 1964.250; 1.80334
1698.43;   72.750;   22.750; 1699.250; 1.52543
1702.16;   80.750;   44.750; 1533.250; 1.61645
1705.89;   75.750;   30.750; 1372.250; 1.47438
1709.62;   51.750;   25.750; 1277.250; 1.68246
1713.35;   83.750;   17.750; 1187.250; 1.24846
1717.07;   80.750;   42.750; 1123.250; 1.45384
1720.79;   88.750;   41.750; 1064.250; 1.33757
1724.50;   74.750;   44.750; 1019.250; 1.51166
1728.21;   86.750;   29.750;  974.250; 1.21933
1731.92;   72.750;   25.750;  931.250; 1.28479
1735.63;   78.750;   34.750;  925.250; 1.30618
1739.33;   78.750;   23.750;  909.250; 1.20683
1743.02;   75.750;   21.750;  865.250; 1.19369
1746.72;   65.750;   33.750;  872.250; 1.41835
1750.41;   86.750;   37.750;  865.250; 1.22757
1754.10;   75.750;   44.750;  846.250; 1.41254

